DTS Sentinel unit serial number:	SN413077Multiplexer serial number:	ORYXHardware model number:	OX4-SRSoftware version number:	ORYX F/W v4,00 Oryx Data Collector v3.7.2.0data status	okinstallation	Frescati_0136differential loss correction	single-endedforward channel	channel 1reverse channel	N/Adate	2017/08/01time	03:18:22forward acquisition time	600,00reverse acquisition time	0,00gamma	496,2192k internal	0,2340k external	0,2340temperature offset calibration	1,0000default loss term (dB/km)	0,3790temperature slope calibration	1,0000multiplexer offset coefficient	1,0000multiplexer slope coefficient	1,0000fibre end	0,00T internal ref (°C)	28,44T ext. ref 1 (°C)	-241,90T ext. ref 2 (°C)	-241,90length (m)	temperature (°C)	Stokes	anti-Stokes-747,200	-96,708	0,120	0,032
-746,185	-144,711	-0,140	0,013
-745,171	-58,869	0,132	0,057
-744,156	-87,996	-0,162	0,049
-743,142	29,433	0,102	0,087
-742,127	-79,463	-0,268	0,091
-741,112	-90,186	0,158	0,046
-740,098	-159,762	-0,202	0,011
-739,083	47,557	0,092	0,086
-738,069	-120,197	-0,113	0,019
-737,054	-96,237	0,039	0,010
-736,039	-129,598	-0,330	-0,046
-735,025	-56,055	0,136	0,061
-734,010	91,987	-0,123	-0,139
-732,996	31,386	-0,121	-0,104
-731,981	-144,136	-0,098	0,009
-730,966	495,316	-0,025	0,057
-729,952	91,730	-0,058	0,066
-728,937	-100,137	-0,080	0,020
-727,923	-135,065	0,046	-0,006
-726,908	-42,048	-0,133	-0,068
-725,894	233,732	0,032	0,052
-724,879	-22,074	-0,048	0,029
-723,864	24,586	-0,035	0,029
-722,850	-200,000	-0,097	0,000
-721,835	279,978	-0,042	-0,074
-720,821	-200,000	0,009	-0,086
-719,806	-200,000	-0,012	-0,105
-718,791	-200,000	0,016	-0,087
-717,777	-200,000	-0,015	-0,108
-716,762	-187,598	-0,103	-0,001
-715,748	25,465	0,041	0,034
-714,733	-102,944	-0,035	-0,008
-713,718	101,788	0,041	-0,048
-712,704	241,714	-0,029	-0,048
-711,689	-99,246	-0,046	-0,012
-710,675	153,023	-0,033	0,045
-709,660	-98,758	0,080	-0,020
-708,645	-200,000	-0,003	-0,029
-707,631	-58,068	-0,048	0,021
-706,616	800,000	0,021	-0,061
-705,602	-200,000	0,022	-0,105
-704,587	257,940	-0,031	-0,054
-703,572	800,000	-0,006	-0,023
-702,558	-200,000	0,000	-0,038
-701,543	-163,536	0,073	-0,003
-700,529	800,000	-0,026	0,091
-699,514	-140,396	0,105	-0,011
-698,499	-57,844	0,027	-0,012
-697,485	-91,258	-0,115	0,033
-696,470	-116,203	-0,053	-0,010
-695,456	-53,152	0,063	-0,029
-694,441	64,162	-0,043	-0,044
-693,426	-104,907	0,064	0,015
-692,412	800,000	0,018	-0,052
-691,397	-200,000	-0,017	-0,115
-690,383	-200,000	-0,004	-0,041
-689,368	63,350	-0,068	0,068
-688,354	189,511	-0,052	-0,079
-687,339	-31,733	0,047	-0,026
-686,324	-200,000	-0,002	-0,033
-685,310	-70,978	-0,079	0,030
-684,295	800,000	0,005	-0,020
-683,281	-78,754	-0,080	-0,027
-682,266	-200,000	-0,011	-0,108
-681,251	-200,000	0,004	0,028
-680,237	-46,757	-0,048	0,023
-679,222	-200,000	0,005	-0,033
-678,208	-40,778	-0,056	0,029
-677,193	-2,598	0,026	-0,018
-676,178	412,651	-0,021	-0,045
-675,164	290,177	0,016	-0,029
-674,149	143,329	-0,049	-0,066
-673,135	-21,334	-0,101	0,062
-672,120	53,267	-0,053	0,050
-671,105	-119,243	-0,037	0,007
-670,091	7,688	-0,047	-0,036
-669,076	-20,028	-0,046	-0,028
-668,062	103,255	-0,051	0,060
-667,047	-200,000	0,015	0,067
-666,032	-159,556	-0,092	0,005
-665,018	-200,000	0,011	-0,083
-664,003	-129,693	0,027	-0,004
-662,989	-39,435	0,070	-0,037
-661,974	-73,546	0,044	-0,016
-660,959	-93,520	-0,139	-0,038
-659,945	-6,324	-0,096	-0,065
-658,930	-200,000	0,012	-0,069
-657,916	36,087	0,059	0,052
-656,901	-200,000	0,008	0,069
-655,886	383,491	-0,040	-0,082
-654,872	-104,768	-0,103	0,024
-653,857	-66,348	-0,089	-0,035
-652,843	-200,000	0,013	-0,088
-651,828	592,736	-0,024	-0,058
-650,814	-200,000	-0,014	-0,068
-649,799	-113,984	0,091	0,018
-648,784	-200,000	-0,012	-0,118
-647,770	115,117	0,054	0,066
-646,755	-82,958	-0,186	0,060
-645,741	-200,000	-0,014	-0,087
-644,726	-47,217	-0,037	0,018
-643,711	1,492	-0,057	0,041
-642,697	-18,956	-0,034	0,021
-641,682	-112,685	-0,128	-0,025
-640,668	-143,725	-0,071	0,007
-639,653	800,000	-0,024	0,094
-638,638	474,023	-0,013	0,030
-637,624	458,188	-0,040	0,088
-636,609	142,151	0,020	-0,027
-635,595	707,232	-0,018	-0,048
-634,580	-200,000	0,000	0,088
-633,565	800,000	-0,032	-0,097
-632,551	94,964	-0,059	-0,067
-631,536	61,157	0,041	-0,040
-630,522	-200,000	-0,011	-0,080
-629,507	110,047	-0,030	-0,036
-628,492	299,328	0,029	-0,053
-627,478	121,163	0,021	0,027
-626,463	-2,638	-0,088	-0,062
-625,449	-200,000	-0,007	-0,044
-624,434	-8,038	-0,058	0,039
-623,419	330,849	-0,015	0,028
-622,405	-107,322	0,071	0,016
-621,390	20,577	-0,015	-0,012
-620,376	-0,363	-0,068	-0,048
-619,361	49,182	-0,018	0,017
-618,346	74,704	-0,022	0,023
-617,332	-30,190	0,032	-0,018
-616,317	148,431	0,031	0,041
-615,303	-161,232	0,096	0,005
-614,288	-86,282	0,055	-0,017
-613,273	-200,000	-0,006	0,045
-612,259	-137,491	-0,070	0,008
-611,244	9,117	-0,010	0,008
-610,230	-200,000	0,018	0,101
-609,215	498,227	0,033	-0,076
-608,201	339,725	0,060	-0,117
-607,186	800,000	0,008	0,023
-606,171	-53,850	-0,150	0,068
-605,157	-137,736	0,036	-0,004
-604,142	10,550	0,034	-0,025
-603,128	448,071	0,005	-0,010
-602,113	62,351	0,045	-0,045
-601,098	-30,895	-0,080	-0,045
-600,084	168,931	-0,046	-0,065
-599,069	12,480	0,031	0,024
-598,055	-53,469	0,136	-0,062
-597,040	-50,096	-0,032	-0,015
-596,025	325,307	-0,012	-0,023
-595,011	-200,000	-0,015	-0,135
-593,996	800,000	-0,008	-0,027
-592,982	800,000	0,008	-0,023
-591,967	-200,000	0,023	-0,104
-590,952	-200,000	-0,019	-0,102
-589,938	-50,558	-0,067	-0,031
-588,923	-164,095	-0,116	-0,005
-587,909	8,134	0,100	0,075
-586,894	-62,092	-0,035	-0,014
-585,879	800,000	0,040	-0,113
-584,865	-105,456	0,024	0,005
-583,850	12,908	-0,020	-0,016
-582,836	543,391	0,017	-0,040
-581,821	16,411	-0,039	0,030
-580,806	17,594	0,061	0,049
-579,792	72,205	-0,010	-0,010
-578,777	-200,000	0,002	0,079
-577,763	800,000	0,018	0,077
-576,748	114,440	-0,031	0,038
-575,733	196,668	0,040	0,060
-574,719	-200,000	0,020	-0,131
-573,704	-6,514	0,066	0,045
-572,690	77,463	-0,057	-0,061
-571,675	37,228	0,037	-0,033
-570,661	676,134	-0,050	0,129
-569,646	-200,000	0,002	0,046
-568,631	172,904	-0,029	0,041
-567,617	-200,000	-0,003	0,068
-566,602	-200,000	0,018	-0,137
-565,588	227,204	0,044	-0,071
-564,573	-200,000	-0,009	-0,066
-563,558	-42,076	0,082	-0,042
-562,544	-200,000	0,011	0,054
-561,529	-160,741	0,068	-0,004
-560,515	800,000	-0,024	-0,097
-559,500	-168,728	-0,089	-0,003
-558,485	59,188	-0,060	-0,058
-557,471	-90,516	-0,050	-0,014
-556,456	400,392	-0,018	0,037
-555,442	44,295	-0,039	-0,036
-554,427	55,706	0,050	0,049
-553,412	-91,819	-0,024	0,007
-552,398	-143,887	-0,017	-0,002
-551,383	305,894	0,043	-0,080
-550,369	-184,769	0,042	0,001
-549,354	-200,000	0,014	0,114
-548,339	800,000	0,007	0,026
-547,325	-200,000	-0,012	0,053
-546,310	-11,783	-0,088	0,058
-545,296	-200,000	0,001	-0,141
-544,281	52,100	-0,038	0,036
-543,266	-10,691	-0,017	-0,011
-542,252	-71,425	-0,070	0,026
-541,237	-200,000	0,025	-0,140
-540,223	-200,000	-0,003	-0,030
-539,208	-93,790	0,056	0,015
-538,193	-86,888	-0,035	-0,010
-537,179	800,000	0,030	0,122
-536,164	-84,783	0,040	0,013
-535,150	-115,686	-0,039	-0,007
-534,135	163,571	0,046	0,064
-533,121	-1,834	-0,020	0,014
-532,106	-47,578	0,042	-0,020
-531,091	35,981	-0,010	-0,009
-530,077	337,475	0,027	0,052
-529,062	-126,452	-0,084	0,012
-528,048	800,000	-0,011	-0,039
-527,033	800,000	0,025	-0,078
-526,018	2,459	-0,105	-0,076
-525,004	-17,376	-0,055	0,034
-523,989	648,702	0,017	-0,043
-522,975	-103,786	-0,050	0,012
-521,960	-79,137	0,007	0,002
-520,945	800,000	0,001	-0,003
-519,931	-23,268	0,015	-0,009
-518,916	-138,348	0,087	-0,010
-517,902	-88,769	-0,078	0,023
-516,887	-200,000	-0,010	0,070
-515,872	-127,552	-0,012	0,002
-514,858	800,000	0,018	0,072
-513,843	-1,784	0,085	0,060
-512,829	-26,431	0,095	0,056
-511,814	-200,000	-0,003	0,035
-510,799	79,959	-0,048	0,051
-509,785	-57,481	-0,054	-0,024
-508,770	-200,000	-0,009	-0,126
-507,756	-200,000	0,014	-0,084
-506,741	39,310	0,029	0,026
-505,726	-114,596	0,046	0,009
-504,712	32,649	-0,067	-0,058
-503,697	800,000	-0,008	0,031
-502,683	780,709	-0,036	-0,098
-501,668	-33,438	-0,081	0,044
-500,653	-133,579	-0,121	-0,015
-499,639	78,175	-0,037	0,039
-498,624	-101,241	-0,098	-0,024
-497,610	-200,000	0,012	0,117
-496,595	0,172	-0,055	0,039
-495,581	-27,056	0,045	0,026
-494,566	375,486	0,035	-0,071
-493,551	440,670	0,051	0,111
-492,537	-23,273	0,062	0,037
-491,522	38,347	0,075	0,066
-490,508	-93,205	0,033	-0,009
-489,493	528,095	0,043	0,101
-488,478	-200,000	0,000	0,051
-487,464	-143,384	-0,034	-0,003
-486,449	-182,819	0,025	-0,000
-485,435	-182,166	-0,088	0,002
-484,420	224,019	0,028	0,045
-483,405	-200,000	0,000	-0,005
-482,391	225,938	0,031	-0,050
-481,376	346,544	0,034	-0,067
-480,362	341,400	-0,032	-0,063
-479,347	-100,953	-0,029	0,007
-478,332	800,000	-0,020	0,060
-477,318	366,563	0,014	0,027
-476,303	-125,289	0,080	-0,012
-475,289	-36,786	0,113	-0,060
-474,274	-94,563	-0,066	-0,018
-473,259	132,310	0,036	-0,046
-472,245	-170,512	-0,065	0,002
-471,230	-48,131	0,065	0,031
-470,216	-70,329	0,060	0,023
-469,201	45,051	-0,057	0,052
-468,186	101,687	-0,056	0,064
-467,172	-200,000	0,008	-0,100
-466,157	0,061	0,043	0,030
-465,143	-200,000	0,007	-0,033
-464,128	5,460	-0,076	0,056
-463,113	-164,575	0,010	0,000
-462,099	749,644	0,010	-0,027
-461,084	-15,398	0,076	-0,048
-460,070	341,094	0,023	0,045
-459,055	-118,745	0,071	0,012
-458,040	84,989	0,058	-0,063
-457,026	113,122	-0,051	-0,062
-456,011	209,138	-0,020	0,030
-454,997	79,324	0,057	0,061
-453,982	-64,268	-0,048	0,019
-452,968	106,904	0,055	0,064
-451,953	-35,447	-0,011	-0,006
-450,938	-119,149	-0,038	0,007
-449,924	161,227	0,014	-0,019
-448,909	527,084	-0,019	0,045
-447,895	-200,000	-0,008	0,146
-446,880	-51,885	0,057	0,026
-445,865	-200,000	0,002	-0,091
-444,851	143,075	-0,022	-0,029
-443,836	800,000	-0,018	-0,069
-442,822	-200,000	-0,004	-0,032
-441,807	-173,364	0,083	-0,002
-440,792	-132,751	0,128	-0,016
-439,778	800,000	-0,005	0,016
-438,763	-140,756	0,057	-0,006
-437,749	-162,845	0,078	-0,004
-436,734	800,000	-0,022	-0,061
-435,719	-142,558	-0,022	0,002
-434,705	-200,000	-0,003	-0,024
-433,690	800,000	-0,004	0,013
-432,676	-157,297	-0,053	0,003
-431,661	-53,281	0,035	0,016
-430,646	-94,481	-0,107	0,029
-429,632	800,000	0,017	-0,056
-428,617	-82,754	0,061	0,019
-427,603	361,508	-0,032	-0,063
-426,588	-104,818	0,046	-0,010
-425,573	86,270	-0,057	0,062
-424,559	278,555	0,027	0,047
-423,544	-200,000	0,002	0,089
-422,530	5,281	0,133	-0,097
-421,515	127,517	0,060	-0,076
-420,500	166,185	-0,047	-0,066
-419,486	-200,000	0,005	-0,052
-418,471	-200,000	-0,003	-0,050
-417,457	-85,517	0,059	0,018
-416,442	106,459	0,045	-0,053
-415,428	712,062	0,026	0,067
-414,413	33,806	0,080	0,069
-413,398	-16,738	0,055	0,034
-412,384	94,117	-0,023	-0,025
-411,369	43,068	-0,030	0,027
-410,355	-145,238	0,052	0,005
-409,340	479,881	-0,028	0,063
-408,325	227,194	-0,018	0,029
-407,311	-54,743	-0,036	-0,016
-406,296	-55,697	-0,045	0,020
-405,282	212,305	-0,028	0,044
-404,267	213,733	-0,044	0,069
-403,252	15,914	0,056	-0,044
-402,238	47,858	-0,060	-0,055
-401,223	158,323	-0,031	-0,042
-400,209	-200,000	-0,012	-0,068
-399,194	27,129	0,021	-0,017
-398,179	147,459	-0,015	-0,020
-397,165	-101,957	0,081	0,019
-396,150	-43,997	0,101	-0,050
-395,136	-122,660	-0,028	0,004
-394,121	-200,000	0,003	0,093
-393,106	-93,465	-0,058	0,016
-392,092	264,007	-0,047	-0,081
-391,077	-200,000	0,003	-0,080
-390,063	192,787	0,063	-0,094
-389,048	-150,736	-0,017	0,001
-388,033	-200,000	-0,013	0,077
-387,019	-200,000	0,010	0,077
-386,004	81,350	0,060	0,064
-384,990	69,254	0,083	-0,085
-383,975	141,874	0,057	-0,075
-382,960	391,544	0,018	-0,037
-381,946	404,403	0,013	-0,026
-380,931	-49,115	-0,073	0,035
-379,917	702,451	0,026	-0,069
-378,902	91,970	-0,009	0,010
-377,888	538,240	0,012	0,029
-376,873	-19,523	0,037	-0,022
-375,858	800,000	-0,021	-0,071
-374,844	-78,732	0,031	-0,011
-373,829	-200,000	0,005	0,053
-372,815	44,213	-0,024	0,022
-371,800	181,221	-0,047	0,068
-370,785	-80,163	-0,109	0,036
-369,771	479,583	0,014	-0,031
-368,756	522,061	-0,038	-0,089
-367,742	-126,076	0,076	0,011
-366,727	-60,226	0,020	-0,009
-365,712	-30,044	0,053	0,030
-364,698	800,000	0,020	-0,080
-363,683	-200,000	-0,005	0,067
-362,669	-155,361	0,130	0,008
-361,654	96,558	0,023	0,026
-360,639	-14,725	-0,042	0,027
-359,625	155,588	0,008	0,010
-358,610	-86,063	-0,085	0,026
-357,596	119,244	-0,079	-0,097
-356,581	-131,754	0,068	-0,009
-355,566	730,437	-0,020	0,053
-354,552	800,000	0,026	-0,074
-353,537	-200,000	0,019	0,091
-352,523	37,032	-0,088	0,076
-351,508	800,000	-0,015	-0,060
-350,493	421,188	0,033	-0,070
-349,479	29,765	0,036	0,030
-348,464	3,667	0,061	0,044
-347,450	-86,900	-0,021	-0,006
-346,435	-62,552	0,067	0,027
-345,420	293,794	-0,018	0,032
-344,406	450,849	0,016	0,036
-343,391	416,297	-0,024	0,050
-342,377	195,558	0,039	0,059
-341,362	75,071	0,021	-0,021
-340,348	-114,259	0,043	0,008
-339,333	99,463	0,038	-0,044
-338,318	-200,000	0,008	-0,051
-337,304	-200,000	0,009	0,057
-336,289	357,921	0,042	-0,084
-335,275	-200,000	-0,014	0,071
-334,260	-118,914	0,067	0,012
-333,245	-44,697	-0,031	0,016
-332,231	-129,210	0,008	0,001
-331,216	-73,316	0,077	-0,028
-330,202	202,190	-0,042	-0,064
-329,187	422,771	-0,039	-0,082
-328,172	345,920	0,020	0,039
-327,158	-89,811	-0,071	0,021
-326,143	-67,857	-0,029	-0,011
-325,129	-28,832	0,032	0,018
-324,114	800,000	-0,018	0,050
-323,099	-82,835	-0,079	-0,025
-322,085	-200,000	0,002	-0,026
-321,070	422,535	0,036	-0,077
-320,056	-200,000	-0,006	0,072
-319,041	16,404	-0,069	0,054
-318,026	753,101	0,025	0,067
-317,012	-94,989	-0,062	0,016
-315,997	-200,000	0,001	-0,053
-314,983	84,347	-0,027	0,029
-313,968	165,377	-0,049	-0,068
-312,953	25,295	0,040	-0,033
-311,939	-14,279	-0,049	0,031
-310,924	628,297	-0,007	-0,018
-309,910	30,897	0,079	0,067
-308,895	-64,242	-0,052	-0,021
-307,880	-97,120	-0,120	0,031
-306,866	151,292	-0,064	-0,086
-305,851	-22,763	0,073	0,043
-304,837	-48,294	-0,051	-0,024
-303,822	-200,000	0,000	-0,043
-302,807	-200,000	0,021	0,107
-301,793	327,864	0,031	-0,058
-300,778	40,840	-0,047	0,042
-299,764	478,886	-0,028	0,062
-298,749	87,183	0,047	0,051
-297,735	-130,484	0,093	0,012
-296,720	20,657	0,053	-0,042
-295,705	-200,000	-0,004	0,073
-294,691	293,412	0,020	0,035
-293,676	-90,333	0,084	0,024
-292,662	-200,000	0,004	-0,104
-291,647	-34,435	-0,060	-0,032
-290,632	-67,204	0,029	0,011
-289,618	195,550	-0,033	0,049
-288,603	-200,000	-0,000	-0,016
-287,589	389,851	-0,014	-0,030
-286,574	800,000	0,029	-0,094
-285,559	800,000	0,010	-0,041
-284,545	207,271	0,014	0,022
-283,530	44,689	0,062	0,056
-282,516	-89,152	0,027	-0,008
-281,501	-140,619	-0,101	-0,010
-280,486	-200,000	0,008	0,049
-279,472	103,839	0,009	-0,010
-278,457	-57,911	-0,063	-0,027
-277,443	88,204	0,038	-0,042
-276,428	96,736	-0,077	0,087
-275,413	-108,742	-0,048	-0,010
-274,399	800,000	0,023	0,065
-273,384	169,231	0,027	-0,037
-272,370	-131,533	-0,040	-0,005
-271,355	-34,379	0,028	0,015
-270,340	-200,000	0,003	-0,081
-269,326	301,915	0,027	0,049
-268,311	23,796	0,028	0,023
-267,297	149,743	-0,052	-0,069
-266,282	255,188	-0,010	0,016
-265,267	10,351	-0,040	-0,030
-264,253	-106,502	-0,058	-0,013
-263,238	545,902	-0,008	-0,018
-262,224	-200,000	0,006	0,060
-261,209	-12,172	-0,022	0,014
-260,195	-200,000	0,007	0,049
-259,180	-24,693	0,108	-0,063
-258,165	800,000	-0,042	0,121
-257,151	36,720	-0,100	0,087
-256,136	-83,956	0,058	0,018
-255,122	193,609	-0,032	-0,048
-254,107	313,719	0,071	0,131
-253,092	-21,053	-0,051	0,031
-252,078	-200,000	0,017	0,113
-251,063	-116,433	-0,050	0,009
-250,049	106,787	-0,043	0,051
-249,034	83,818	0,066	0,070
-248,019	-95,724	-0,195	0,051
-247,005	-88,710	0,075	-0,022
-245,990	23,890	-0,049	-0,040
-244,976	-200,000	0,017	0,080
-243,961	-105,678	0,091	-0,020
-242,946	213,995	-0,028	-0,044
-241,932	-54,845	-0,120	-0,053
-240,917	-200,000	0,005	-0,025
-239,903	94,952	0,047	0,053
-238,888	-34,821	0,053	0,028
-237,873	-200,000	-0,012	0,095
-236,859	172,648	0,059	0,084
-235,844	800,000	-0,029	0,090
-234,830	-196,089	0,128	-0,001
-233,815	-40,532	-0,072	-0,037
-232,800	-200,000	-0,010	0,052
-231,786	800,000	-0,016	-0,060
-230,771	99,909	-0,007	0,008
-229,757	188,748	0,050	-0,074
-228,742	8,943	-0,075	0,056
-227,727	-143,425	0,036	0,003
-226,713	-200,000	0,011	-0,074
-225,698	-200,000	0,003	-0,050
-224,684	-55,847	-0,026	-0,011
-223,669	376,253	0,027	0,055
-222,655	60,579	0,016	-0,015
-221,640	-75,075	0,038	-0,013
-220,625	-200,000	-0,007	0,079
-219,611	-200,000	0,005	-0,125
-218,596	-51,314	-0,063	-0,029
-217,582	769,014	0,031	0,082
-216,567	154,107	0,005	-0,007
-215,552	-200,000	0,015	-0,077
-214,538	124,300	0,044	-0,054
-213,523	127,915	-0,011	0,013
-212,509	137,252	0,019	0,025
-211,494	16,379	0,052	-0,040
-210,479	-61,148	-0,093	-0,039
-209,465	-85,568	-0,071	-0,022
-208,450	10,159	0,098	0,073
-207,436	88,995	0,023	-0,025
-206,421	-94,979	0,058	-0,015
-205,406	440,152	0,008	0,016
-204,392	-58,852	-0,061	-0,026
-203,377	-200,000	0,003	0,027
-202,363	-200,000	0,003	0,107
-201,348	39,456	0,058	-0,051
-200,333	275,290	0,020	-0,035
-199,319	800,000	-0,013	0,052
-198,304	-200,000	0,000	-0,061
-197,290	-103,103	0,082	0,019
-196,275	650,586	-0,019	-0,047
-195,260	622,550	0,011	-0,026
-194,246	-66,918	-0,078	0,030
-193,231	590,609	0,020	-0,049
-192,217	243,205	0,036	-0,059
-191,202	633,260	0,035	-0,087
-190,187	49,591	-0,057	-0,053
-189,173	133,485	0,044	-0,056
-188,158	800,000	0,020	0,065
-187,144	-112,963	0,056	-0,011
-186,129	-120,779	0,070	0,012
-185,114	153,434	0,017	0,023
-184,100	-113,428	-0,094	0,018
-183,085	-70,089	-0,048	0,018
-182,071	129,407	-0,011	0,014
-181,056	129,051	-0,031	0,038
-180,042	-134,966	-0,085	-0,010
-179,027	282,294	0,018	0,032
-178,012	570,338	0,021	0,051
-176,998	-57,301	0,064	-0,027
-175,983	-169,807	0,095	-0,003
-174,969	-96,478	-0,069	0,018
-173,954	-200,000	0,006	-0,061
-172,939	-47,010	-0,034	0,016
-171,925	-167,274	-0,079	-0,003
-170,910	-188,729	0,069	-0,001
-169,896	800,000	0,013	-0,035
-168,881	-200,000	-0,011	-0,063
-167,866	53,023	-0,043	0,041
-166,852	-27,630	-0,057	0,033
-165,837	186,126	-0,018	0,026
-164,823	-28,652	-0,089	0,050
-163,808	544,321	0,006	0,014
-162,793	-200,000	0,028	0,143
-161,779	143,773	0,037	0,048
-160,764	800,000	-0,029	-0,113
-159,750	138,661	-0,033	-0,042
-158,735	800,000	-0,011	-0,046
-157,720	538,151	0,023	0,053
-156,706	-179,389	-0,051	0,001
-155,691	-112,277	-0,029	0,006
-154,677	188,686	-0,065	-0,095
-153,662	-200,000	0,011	0,065
-152,647	-111,553	0,034	-0,007
-151,633	-143,097	0,063	0,006
-150,618	-48,340	0,020	-0,010
-149,604	800,000	-0,018	-0,053
-148,589	123,903	-0,014	-0,018
-147,574	-101,348	-0,111	-0,027
-146,560	220,656	-0,009	-0,014
-145,545	-67,608	-0,076	0,029
-144,531	-200,000	-0,014	-0,069
-143,516	-200,000	-0,004	0,027
-142,502	-200,000	0,001	0,021
-141,487	43,585	0,021	0,019
-140,472	-66,074	-0,060	-0,023
-139,458	36,183	-0,030	-0,026
-138,443	-200,000	0,024	-0,114
-137,429	198,451	-0,073	-0,109
-136,414	69,862	0,075	-0,076
-135,399	1,195	0,117	-0,082
-134,385	-1,627	-0,077	-0,053
-133,370	104,633	0,042	0,048
-132,356	-37,350	-0,063	0,033
-131,341	-89,961	-0,057	0,016
-130,326	46,600	0,025	-0,023
-129,312	-187,859	-0,153	-0,002
-128,297	86,853	0,036	0,039
-127,283	-3,408	-0,041	0,028
-126,268	65,039	0,017	0,016
-125,253	773,461	-0,015	0,040
-124,239	-101,758	0,015	-0,004
-123,224	-0,499	-0,061	-0,043
-122,210	-200,000	0,005	0,059
-121,195	-200,000	-0,003	0,043
-120,180	-162,905	-0,014	0,001
-119,166	-200,000	-0,008	-0,067
-118,151	63,991	0,048	-0,048
-117,137	312,895	0,022	0,041
-116,122	-137,274	0,081	0,009
-115,107	-200,000	0,002	-0,101
-114,093	-200,000	0,003	0,016
-113,078	-50,423	0,044	0,020
-112,064	14,481	0,038	0,029
-111,049	-68,027	-0,047	-0,018
-110,034	-62,468	-0,069	-0,028
-109,020	-3,199	0,017	0,011
-108,005	-200,000	-0,006	0,107
-106,991	-200,000	0,019	-0,125
-105,976	24,564	-0,035	-0,028
-104,962	-200,000	0,006	-0,035
-103,947	800,000	-0,026	-0,075
-102,932	26,190	-0,063	0,051
-101,918	539,313	-0,032	0,074
-100,903	800,000	-0,016	0,052
-99,889	-18,244	0,046	0,028
-98,874	3,859	0,038	0,027
-97,859	435,988	-0,024	0,051
-96,845	-167,497	0,028	-0,001
-95,830	-54,340	-0,084	0,037
-94,816	233,999	-0,025	-0,041
-93,801	55,118	-0,048	0,045
-92,786	161,358	-0,030	0,041
-91,772	-24,950	-0,058	0,034
-90,757	396,961	-0,027	-0,055
-89,743	311,107	0,037	-0,067
-88,728	-19,178	0,014	-0,009
-87,713	13,796	-0,051	-0,039
-86,699	800,000	-0,016	0,067
-85,684	97,642	-0,089	0,100
-84,670	191,495	0,017	-0,025
-83,655	-120,805	-0,022	0,004
-82,640	52,990	-0,064	-0,059
-81,626	-89,877	0,148	0,042
-80,611	-176,536	-0,046	0,001
-79,597	-200,000	0,012	0,060
-78,582	108,290	0,058	0,068
-77,567	800,000	0,023	0,084
-76,553	38,819	0,014	0,012
-75,538	304,967	-0,006	-0,012
-74,524	800,000	0,028	-0,085
-73,509	142,202	0,049	0,063
-72,494	800,000	-0,027	-0,082
-71,480	-49,741	-0,016	0,007
-70,465	-1,783	0,020	-0,013
-69,451	17,697	0,070	0,055
-68,436	-94,062	0,062	0,017
-67,422	-168,840	-0,048	0,002
-66,407	580,033	-0,041	-0,098
-65,392	-136,082	0,026	-0,003
-64,378	800,000	0,027	-0,080
-63,363	128,614	-0,020	0,025
-62,349	-66,133	-0,079	0,031
-61,334	31,129	-1,933	-1,618
-60,319	4,421	1,967	1,408
-59,305	258,095	-3,172	-5,330
-58,290	189,365	3,447	5,041
-57,276	623,138	1,606	3,947
-56,261	639,318	225,346	559,369
-55,246	218,570	2008,980	3131,251
-54,232	136,483	2744,639	3494,501
-53,217	99,156	1979,470	2231,959
-52,203	46,154	1465,497	1324,409
-51,188	35,960	1215,733	1043,756
-50,173	31,165	1171,323	980,475
-49,159	43,727	1263,807	1128,487
-48,144	40,275	1261,759	1107,349
-47,130	30,965	1197,401	1001,111
-46,115	29,606	1177,849	977,539
-45,100	29,198	1171,596	970,162
-44,086	29,031	1168,913	967,023
-43,071	28,925	1166,947	964,800
-42,057	28,871	1165,251	963,078
-41,042	28,772	1163,537	961,104
-40,027	28,664	1162,260	959,451
-39,013	28,620	1160,806	957,979
-37,998	28,569	1159,485	956,588
-36,984	28,578	1158,159	955,501
-35,969	28,531	1156,786	954,089
-34,954	28,506	1155,511	952,866
-33,940	28,476	1154,244	951,630
-32,925	28,506	1153,023	950,741
-31,911	28,493	1151,671	949,521
-30,896	28,448	1150,442	948,238
-29,881	28,482	1149,417	947,528
-28,867	28,491	1148,223	946,552
-27,852	28,488	1147,130	945,601
-26,838	28,467	1146,074	944,587
-25,823	28,485	1144,771	943,562
-24,809	28,476	1143,794	942,674
-23,794	28,463	1142,736	941,702
-22,779	28,446	1141,888	940,878
-21,765	28,442	1140,983	940,074
-20,750	28,435	1139,710	938,951
-19,736	28,398	1138,482	937,711
-18,721	28,393	1137,491	936,834
-17,706	28,433	1136,570	936,244
-16,692	28,476	1135,663	935,678
-15,677	28,458	1134,879	934,903
-14,663	28,444	1133,890	933,979
-13,648	28,397	1133,158	933,100
-12,633	28,427	1132,351	932,551
-11,619	28,310	1131,634	931,330
-10,604	28,336	1130,759	930,706
-9,590	28,355	1130,059	930,186
-8,575	28,362	1129,364	929,612
-7,560	28,323	1128,726	928,854
-6,546	28,256	1128,142	927,999
-5,531	28,312	1127,208	927,478
-4,517	28,264	1126,407	926,536
-3,502	28,252	1125,679	925,840
-2,487	28,336	1124,624	925,359
-1,473	28,328	1123,744	924,557
-0,458	28,329	1122,763	923,722
0,556	28,046	1120,969	922,202
1,571	27,722	1107,031	909,040
2,586	27,476	1007,306	825,960
3,600	23,877	873,345	701,875
4,615	18,755	811,049	632,926
5,629	18,360	802,774	624,968
6,644	18,397	800,361	623,170
7,659	18,636	798,502	622,535
8,673	19,059	794,816	621,133
9,688	18,935	790,324	617,123
10,702	18,624	788,315	614,387
11,717	18,381	786,715	612,217
12,731	18,259	782,814	608,694
13,746	18,162	778,606	605,024
14,761	18,152	776,846	603,570
15,775	18,240	775,886	603,079
16,790	18,295	774,993	602,525
17,804	18,235	774,284	601,711
18,819	18,224	773,414	600,941
19,834	18,251	772,645	600,387
20,848	18,262	772,038	599,899
21,863	18,283	771,299	599,347
22,877	18,305	770,637	598,854
23,892	18,295	769,939	598,226
24,907	18,267	769,487	597,723
25,921	18,291	768,802	597,221
26,936	18,359	768,298	597,014
27,950	18,471	767,818	596,981
28,965	18,395	767,354	596,303
29,980	18,370	766,770	595,709
30,994	18,433	766,386	595,576
32,009	18,507	766,004	595,484
33,023	18,578	765,393	595,201
34,038	18,604	764,938	594,886
35,053	18,623	764,352	594,443
36,067	18,608	764,082	594,128
37,082	18,698	763,502	593,938
38,096	18,740	763,094	593,711
39,111	18,787	762,571	593,415
40,126	18,814	762,209	593,172
41,140	18,907	761,677	593,028
42,155	18,922	761,310	592,742
43,169	18,924	760,877	592,360
44,184	18,906	760,283	591,783
45,199	18,928	759,748	591,387
46,213	18,893	759,277	590,851
47,228	18,823	758,767	590,161
48,242	18,829	758,264	589,738
49,257	18,907	757,931	589,694
50,271	18,907	757,464	589,279
51,286	18,839	756,901	588,557
52,301	18,830	756,449	588,120
53,315	18,856	755,784	587,642
54,330	18,792	755,397	587,069
55,344	18,701	754,860	586,288
56,359	18,563	754,073	585,154
57,374	18,259	753,169	583,366
58,388	18,097	752,605	582,325
59,403	18,018	751,967	581,510
60,417	18,032	751,439	581,097
61,432	18,123	750,810	580,872
62,447	18,228	750,525	580,955
63,461	18,360	750,047	580,982
64,476	18,420	749,696	580,860
65,490	18,623	749,540	581,379
66,505	18,763	749,035	581,410
67,520	18,732	748,436	580,788
68,534	18,642	748,077	580,154
69,549	18,663	747,579	579,787
70,563	18,727	747,233	579,681
71,578	18,858	746,872	579,795
72,593	18,816	746,481	579,296
73,607	18,752	746,050	578,695
74,622	18,829	745,782	578,696
75,636	18,867	745,341	578,431
76,651	18,906	744,833	578,117
77,666	18,919	744,350	577,732
78,680	18,965	744,080	577,627
79,695	18,940	743,791	577,269
80,709	18,907	743,004	576,495
81,724	18,799	742,578	575,752
82,739	18,849	742,188	575,567
83,753	18,905	741,732	575,349
84,768	18,755	741,111	574,314
85,782	18,465	740,265	572,639
86,797	18,214	739,585	571,225
87,812	18,115	739,015	570,405
88,826	18,049	738,583	569,799
89,841	18,063	738,178	569,485
90,855	18,046	737,579	568,916
91,870	18,009	737,139	568,401
92,884	17,967	736,625	567,815
93,899	17,945	736,351	567,482
94,914	17,938	735,903	567,064
95,928	17,948	735,373	566,636
96,943	17,901	734,921	566,083
97,957	17,952	734,252	565,687
98,972	17,935	733,780	565,215
99,987	17,833	733,429	564,558
101,001	17,797	732,844	563,940
102,016	17,826	732,429	563,667
103,030	17,943	731,922	563,610
104,045	17,882	731,461	563,004
105,060	17,870	730,981	562,548
106,074	17,946	730,599	562,454
107,089	18,152	730,170	562,751
108,103	18,168	729,958	562,591
109,118	18,129	729,370	561,961
110,133	18,075	728,909	561,377
111,147	18,081	728,629	561,131
112,162	18,084	728,280	560,822
113,176	17,991	727,799	560,096
114,191	17,934	727,369	559,532
115,206	17,852	726,989	558,922
116,220	17,739	726,449	558,087
117,235	17,659	725,993	557,424
118,249	17,671	725,531	557,060
119,264	17,694	725,146	556,791
120,279	17,738	724,792	556,613
121,293	17,744	724,224	556,148
122,308	17,709	723,466	555,400
123,322	16,916	722,264	551,851
124,337	15,862	720,898	547,333
125,352	15,436	719,996	545,215
126,366	15,478	719,564	544,977
127,381	15,642	719,488	545,403
128,395	16,045	719,347	546,555
129,410	16,058	718,968	546,260
130,424	15,655	718,161	544,294
131,439	15,811	717,908	544,560
132,454	16,479	718,017	546,756
133,468	16,658	717,873	547,177
134,483	16,785	717,463	547,226
135,497	17,027	717,182	547,742
136,512	17,107	716,617	547,520
137,527	17,165	715,946	547,147
138,541	17,200	715,376	546,775
139,556	17,207	714,909	546,392
140,570	17,155	714,448	545,825
141,585	17,144	713,964	545,371
142,600	16,964	713,085	544,074
143,614	16,572	712,369	542,226
144,629	16,145	716,836	544,198
145,643	16,320	726,254	551,872
146,658	16,486	731,934	556,685
147,673	16,513	732,339	557,034
148,687	16,533	731,969	556,768
149,702	16,519	731,484	556,304
150,716	16,489	730,936	555,738
151,731	16,142	730,229	554,014
152,746	15,621	729,264	551,522
153,760	15,818	729,151	552,036
154,775	16,482	729,213	554,211
155,789	16,630	728,832	554,355
156,804	16,558	728,388	553,735
157,819	16,344	727,790	552,531
158,833	15,845	727,286	550,465
159,848	15,671	726,880	549,541
160,862	15,852	726,866	550,073
161,877	15,976	726,642	550,262
162,892	15,606	726,150	548,632
163,906	15,241	725,559	546,945
164,921	15,240	725,198	546,623
165,935	15,248	725,282	546,663
166,950	15,586	725,586	547,947
167,964	16,150	726,221	550,217
168,979	16,436	726,212	551,096
169,994	16,432	725,868	550,771
171,008	16,563	725,288	550,711
172,023	16,774	724,906	551,056
173,037	17,070	724,661	551,784
174,052	17,098	724,090	551,392
175,067	16,749	723,206	549,538
176,081	16,516	722,244	548,003
177,096	16,581	721,641	547,709
178,110	16,623	721,165	547,433
179,125	16,590	720,291	546,614
180,140	16,560	719,250	545,680
181,154	16,485	718,284	544,657
182,169	16,425	717,510	543,830
183,183	16,448	716,808	543,323
184,198	16,267	716,156	542,199
185,213	16,243	715,598	541,652
186,227	16,448	715,253	542,001
187,242	16,594	714,791	542,071
188,256	16,700	714,442	542,097
189,271	16,532	713,930	541,122
190,286	16,394	713,425	540,250
191,300	16,374	712,964	539,789
192,315	16,488	712,753	539,948
193,329	16,585	712,693	540,165
194,344	16,810	712,847	540,951
195,359	16,786	712,582	540,626
196,373	16,562	711,923	539,365
197,388	16,575	711,779	539,246
198,402	16,520	711,520	538,830
199,417	16,195	711,323	537,597
200,432	16,092	711,000	536,976
201,446	16,039	710,798	536,608
202,461	15,982	710,537	536,181
203,475	16,015	710,213	535,994
204,490	16,101	710,093	536,131
205,504	16,031	709,724	535,582
206,519	15,846	709,337	534,654
207,534	15,904	709,112	534,622
208,548	16,073	708,853	534,915
209,563	16,085	708,221	534,429
210,577	16,067	707,708	533,937
211,592	16,118	707,145	533,626
212,607	16,074	706,623	533,048
213,621	16,168	706,268	533,031
214,636	16,301	705,577	532,882
215,650	16,252	704,836	532,118
216,665	16,265	704,172	531,613
217,680	16,283	703,520	531,131
218,694	16,119	702,306	529,650
219,709	15,872	701,143	527,952
220,723	15,791	700,485	527,158
221,738	15,846	699,743	526,723
222,753	15,772	699,090	525,954
223,767	15,581	698,540	524,899
224,782	15,580	698,050	524,481
225,796	15,779	697,667	524,767
226,811	16,077	697,748	525,709
227,826	16,141	697,438	525,630
228,840	15,858	696,822	524,236
229,855	15,646	696,262	523,110
230,869	15,657	696,165	523,025
231,884	15,739	696,119	523,199
232,899	15,807	696,088	523,342
233,913	15,710	696,054	522,969
234,928	15,615	695,887	522,499
235,942	15,654	695,805	522,515
236,957	15,846	695,680	522,969
237,972	15,792	695,610	522,704
238,986	15,726	695,346	522,253
240,001	15,656	694,925	521,676
241,015	15,524	694,554	520,939
242,030	15,565	694,093	520,674
243,045	15,505	693,665	520,122
244,059	15,341	693,039	519,101
245,074	15,189	692,499	518,178
246,088	15,034	692,379	517,565
247,103	15,044	691,908	517,197
248,117	15,026	691,297	516,640
249,132	14,987	690,725	516,045
250,147	14,882	690,261	515,329
251,161	14,922	689,629	514,935
252,176	14,933	688,986	514,442
253,190	14,961	688,421	514,063
254,205	14,916	687,842	513,447
255,220	14,877	687,189	512,793
256,234	14,865	686,686	512,336
257,249	14,884	685,989	511,830
258,263	14,873	684,943	510,969
259,278	14,766	684,048	509,931
260,293	14,788	683,509	509,551
261,307	14,752	683,138	509,120
262,322	14,791	682,762	508,912
263,336	14,758	682,348	508,460
264,351	14,683	681,965	507,899
265,366	14,638	681,620	507,462
266,380	14,604	681,295	507,071
267,395	14,797	681,256	507,583
268,409	15,074	681,378	508,471
269,424	15,081	681,272	508,367
270,439	15,000	681,155	507,990
271,453	15,013	681,208	508,025
272,468	14,975	681,378	507,989
273,482	14,983	681,418	507,998
274,497	14,867	681,154	507,404
275,512	14,963	680,850	507,426
276,526	14,971	680,739	507,321
277,541	15,136	680,553	507,637
278,555	15,094	680,244	507,237
279,570	14,980	679,676	506,423
280,585	15,048	679,284	506,291
281,599	15,195	678,817	506,343
282,614	15,029	678,355	505,453
283,628	14,948	677,698	504,673
284,643	14,938	677,114	504,164
285,657	14,894	676,567	503,579
286,672	14,931	676,095	503,294
287,687	14,963	675,517	502,915
288,701	14,932	674,942	502,351
289,716	15,038	674,380	502,206
290,730	15,120	673,978	502,108
291,745	15,189	673,524	501,931
292,760	15,150	673,008	501,385
293,774	15,045	672,285	500,489
294,789	14,931	671,755	499,710
295,803	14,949	671,185	499,294
296,818	15,049	670,767	499,238
297,833	15,079	670,218	498,876
298,847	15,058	669,627	498,329
299,862	15,141	669,181	498,200
300,876	15,103	668,932	497,857
301,891	15,139	668,595	497,668
302,906	15,074	668,273	497,191
303,920	15,029	668,057	496,854
304,935	15,052	667,854	496,727
305,949	14,979	667,698	496,352
306,964	15,010	667,645	496,359
307,979	15,052	667,527	496,353
308,993	14,992	667,358	496,005
310,008	14,998	667,320	495,951
311,022	15,023	667,498	496,114
312,037	15,026	667,405	496,008
313,052	15,013	667,189	495,767
314,066	15,024	666,804	495,468
315,081	14,975	666,338	494,934
316,095	14,954	665,872	494,482
317,110	14,923	665,513	494,079
318,125	14,887	665,038	493,579
319,139	14,836	664,403	492,911
320,154	14,858	664,054	492,675
321,168	14,909	663,594	492,438
322,183	15,018	662,958	492,244
323,197	15,050	662,400	491,880
324,212	15,035	661,688	491,265
325,227	14,909	660,900	490,267
326,241	14,817	660,169	489,412
327,256	14,736	659,512	488,644
328,270	14,782	658,999	488,354
329,285	14,749	658,515	487,856
330,300	14,763	658,004	487,475
331,314	14,760	657,515	487,061
332,329	14,778	657,036	486,715
333,343	14,731	656,567	486,188
334,358	14,832	656,271	486,221
335,373	14,931	655,886	486,180
336,387	14,969	655,457	485,929
337,402	14,793	654,920	484,977
338,416	14,777	654,498	484,575
339,431	14,750	654,149	484,198
340,446	14,772	653,920	484,047
341,460	14,838	653,761	484,077
342,475	14,902	653,566	484,076
343,489	14,865	653,467	483,853
344,504	14,767	653,257	483,372
345,519	14,694	653,219	483,088
346,533	14,789	652,966	483,135
347,548	14,812	652,833	483,060
348,562	14,793	652,727	482,883
349,577	14,776	652,785	482,834
350,592	14,796	652,704	482,790
351,606	14,813	652,491	482,639
352,621	14,823	652,204	482,411
353,635	14,759	651,761	481,857
354,650	14,736	651,233	481,359
355,665	14,808	650,657	481,097
356,679	14,725	650,199	480,476
357,694	14,648	649,631	479,795
358,708	14,623	649,048	479,248
359,723	14,577	648,419	478,609
360,738	14,494	647,813	477,883
361,752	14,610	647,256	477,760
362,767	14,700	646,326	477,290
363,781	14,657	645,658	476,633
364,796	14,592	644,876	475,826
365,810	14,632	644,426	475,568
366,825	14,675	643,957	475,300
367,840	14,705	643,428	474,953
368,854	14,715	643,048	474,659
369,869	14,589	642,643	473,960
370,883	14,537	642,236	473,469
371,898	14,489	641,920	473,059
372,913	14,644	641,589	473,213
373,927	14,678	641,469	473,178
374,942	14,732	641,146	473,054
375,956	14,732	640,938	472,856
376,971	14,625	640,734	472,361
377,986	14,475	640,497	471,720
379,000	14,504	640,526	471,782
380,015	14,601	640,341	471,879
381,029	14,599	640,193	471,724
382,044	14,506	639,989	471,268
383,059	14,485	639,764	471,002
384,073	14,465	639,506	470,712
385,088	14,395	639,347	470,356
386,102	14,398	639,249	470,251
387,117	14,488	639,087	470,345
388,132	14,563	639,040	470,479
389,146	14,597	639,004	470,507
390,161	14,630	638,651	470,300
391,175	14,610	638,317	469,954
392,190	14,464	637,819	469,135
393,205	14,443	637,183	468,568
394,219	14,352	636,700	467,914
395,234	14,552	636,287	468,132
396,248	14,628	635,865	467,993
397,263	14,575	635,204	467,316
398,278	14,453	634,566	466,465
399,292	14,461	633,864	465,928
400,307	14,391	633,220	465,220
401,321	14,453	632,351	464,711
402,336	14,433	631,537	464,017
403,350	14,438	630,901	463,524
404,365	14,367	630,284	462,831
405,380	14,402	629,872	462,586
406,394	14,535	629,635	462,740
407,409	14,569	629,137	462,428
408,423	14,529	628,735	461,980
409,438	14,515	628,578	461,785
410,453	14,567	628,087	461,527
411,467	14,618	627,978	461,546
412,482	14,497	627,781	461,026
413,496	14,437	627,416	460,553
414,511	14,381	627,294	460,267
415,526	14,373	627,312	460,218
416,540	14,425	627,157	460,206
417,555	14,524	627,159	460,441
418,569	14,613	626,924	460,473
419,584	14,565	626,854	460,247
420,599	14,484	626,804	459,948
421,613	14,639	626,445	460,070
422,628	14,721	626,203	460,079
423,642	14,609	625,837	459,460
424,657	14,509	625,403	458,826
425,672	14,561	625,036	458,658
426,686	14,655	624,700	458,631
427,701	14,667	624,385	458,390
428,715	14,649	624,112	458,100
429,730	14,649	623,729	457,780
430,745	14,686	623,266	457,501
431,759	14,685	622,825	457,134
432,774	14,646	622,074	456,436
433,788	14,611	621,583	455,938
434,803	14,624	620,996	455,504
435,818	14,621	620,542	455,121
436,832	14,643	620,117	454,829
437,847	14,696	619,674	454,610
438,861	14,631	619,171	454,022
439,876	14,754	618,530	453,847
440,890	14,716	617,808	453,173
441,905	14,802	617,115	452,859
442,920	14,685	616,620	452,137
443,934	14,676	616,281	451,826
444,949	14,668	616,051	451,596
445,963	14,794	615,852	451,749
446,978	14,796	615,628	451,551
447,993	14,805	615,316	451,307
449,007	14,742	615,139	450,966
450,022	14,804	614,913	450,929
451,036	14,757	614,912	450,762
452,051	14,755	614,775	450,614
453,066	14,688	614,702	450,341
454,080	14,696	614,861	450,439
455,095	14,783	614,839	450,617
456,109	14,815	614,775	450,616
457,124	14,766	614,656	450,359
458,139	14,747	614,412	450,088
459,153	14,793	614,100	449,945
460,168	14,882	613,654	449,817
461,182	14,873	613,477	449,623
462,197	14,955	613,136	449,554
463,212	14,927	612,620	449,059
464,226	14,918	612,213	448,697
465,241	14,913	611,655	448,236
466,255	14,865	611,207	447,740
467,270	14,900	610,770	447,475
468,285	14,982	610,320	447,322
469,299	14,820	609,654	446,364
470,314	14,832	609,156	445,991
471,328	14,868	608,695	445,710
472,343	14,951	608,344	445,635
473,358	15,023	607,801	445,390
474,372	14,996	607,441	445,015
475,387	15,056	606,971	444,791
476,401	15,071	606,447	444,407
477,416	15,001	605,943	443,812
478,430	14,991	605,401	443,349
479,445	14,899	604,878	442,683
480,460	14,918	604,312	442,281
481,474	15,012	603,889	442,181
482,489	14,997	603,584	441,879
483,503	14,969	603,222	441,499
484,518	15,105	603,037	441,685
485,533	15,179	602,841	441,697
486,547	15,183	602,650	441,527
487,562	15,168	602,538	441,367
488,576	15,101	602,562	441,170
489,591	15,085	602,383	440,957
490,606	15,128	602,347	441,004
491,620	15,068	602,156	440,670
492,635	15,065	602,210	440,661
493,649	15,069	602,484	440,833
494,664	15,132	602,465	440,945
495,679	15,094	602,169	440,590
496,693	15,176	601,830	440,519
497,708	15,227	601,549	440,408
498,722	15,263	601,219	440,222
499,737	15,197	600,717	439,643
500,752	15,241	600,364	439,460
501,766	15,287	599,807	439,135
502,781	15,218	599,278	438,529
503,795	15,199	598,763	438,063
504,810	15,195	598,180	437,587
505,825	15,205	597,432	437,025
506,839	15,172	596,807	436,444
507,854	15,161	596,223	435,952
508,868	15,229	595,570	435,610
509,883	15,136	595,013	434,925
510,898	15,132	594,647	434,608
511,912	15,162	594,183	434,308
512,927	15,269	593,656	434,160
513,941	15,243	593,246	433,757
514,956	15,106	592,894	433,105
515,971	15,066	592,475	432,657
516,985	15,204	592,173	432,756
518,000	15,220	591,853	432,524
519,014	15,263	591,604	432,416
520,029	15,219	591,378	432,098
521,043	15,191	591,025	431,731
522,058	15,096	590,833	431,307
523,073	15,147	590,779	431,361
524,087	15,120	590,488	431,040
525,102	15,053	590,464	430,813
526,116	15,136	590,316	430,881
527,131	15,023	590,080	430,379
528,146	15,126	589,950	430,511
529,160	15,205	589,851	430,604
530,175	15,039	589,594	429,950
531,189	14,881	589,291	429,287
532,204	14,824	589,105	428,968
533,219	14,859	589,099	429,013
534,233	14,949	588,848	429,025
535,248	14,916	588,434	428,600
536,262	14,878	587,950	428,112
537,277	14,891	587,473	427,760
538,292	14,827	587,106	427,291
539,306	14,819	586,654	426,904
540,321	14,857	586,233	426,656
541,335	14,949	585,748	426,501
542,350	15,011	585,211	426,231
543,365	15,020	584,706	425,849
544,379	14,982	583,961	425,171
545,394	15,074	583,137	424,766
546,408	15,049	582,408	424,135
547,423	15,071	581,845	423,743
548,438	15,002	581,415	423,219
549,452	15,067	580,976	423,025
550,467	15,135	580,672	422,939
551,481	15,160	580,229	422,643
552,496	15,058	579,921	422,123
553,511	15,187	579,683	422,238
554,525	15,328	579,460	422,393
555,540	15,501	579,447	422,780
556,554	15,591	579,323	422,879
557,569	15,685	579,271	423,042
558,583	15,603	579,113	422,681
559,598	15,516	579,078	422,401
560,613	15,375	578,998	421,949
561,627	15,456	578,958	422,088
562,642	15,569	578,812	422,227
563,656	15,521	578,546	421,875
564,671	15,486	578,224	421,514
565,686	15,546	578,171	421,590
566,700	15,654	578,066	421,747
567,715	15,755	577,913	421,851
568,729	15,813	577,584	421,719
569,744	15,855	577,396	421,649
570,759	15,845	577,072	421,350
571,773	15,722	576,756	420,774
572,788	15,645	576,467	420,335
573,802	15,872	576,172	420,649
574,817	16,085	575,950	420,981
575,832	16,201	575,581	420,965
576,846	16,140	574,953	420,316
577,861	16,101	574,321	419,719
578,875	16,007	573,949	419,176
579,890	16,254	573,628	419,520
580,905	16,326	573,296	419,419
581,919	16,381	572,957	419,270
582,934	16,585	572,513	419,414
583,948	16,540	571,724	418,686
584,963	16,318	570,830	417,447
585,978	16,299	570,340	417,005
586,992	16,351	569,903	416,775
588,007	16,347	569,607	416,514
589,021	16,496	569,385	416,680
590,036	16,543	569,193	416,620
591,051	16,450	568,866	416,115
592,065	16,595	568,741	416,342
593,080	16,606	568,560	416,200
594,094	16,443	568,219	415,512
595,109	16,235	568,042	414,835
596,123	16,322	568,050	415,019
597,138	16,369	568,078	415,119
598,153	16,520	568,284	415,604
599,167	16,704	568,367	416,080
600,182	16,679	568,135	415,812
601,196	16,506	567,985	415,241
602,211	16,528	567,846	415,155
603,226	16,725	567,664	415,470
604,240	16,599	567,223	414,802
605,255	16,383	566,796	413,922
606,269	16,459	566,596	413,926
607,284	16,628	566,328	414,107
608,299	16,728	565,916	414,014
609,313	16,611	565,443	413,345
610,328	16,492	565,210	412,847
611,342	16,711	564,982	413,180
612,357	17,002	564,755	413,686
613,372	16,973	564,258	413,214
614,386	16,819	563,594	412,318
615,401	16,682	562,981	411,500
616,415	16,651	562,497	411,034
617,430	16,917	562,147	411,387
618,445	16,952	561,856	411,223
619,459	16,975	561,403	410,911
620,474	16,942	560,882	410,413
621,488	16,697	560,248	409,320
622,503	16,526	559,679	408,455
623,518	16,731	559,197	408,562
624,532	17,041	558,828	409,003
625,547	17,144	558,392	408,896
626,561	16,904	557,897	407,920
627,576	16,660	557,581	407,068
628,591	16,502	557,415	406,528
629,605	16,547	557,273	406,498
630,620	16,424	556,801	405,822
631,634	15,903	556,192	404,092
632,649	15,523	555,860	402,904
633,663	15,371	555,662	402,361
634,678	15,312	555,660	402,181
635,693	15,501	555,955	402,812
636,707	15,924	556,285	404,032
637,722	15,934	556,301	404,031
638,736	15,706	556,037	403,256
639,751	15,816	555,936	403,412
640,766	16,292	555,979	404,547
641,780	16,605	555,909	405,212
642,795	16,708	555,765	405,317
643,809	16,693	555,310	404,914
644,824	16,120	554,418	402,860
645,839	15,602	553,895	401,207
646,853	16,069	553,864	402,264
647,868	16,522	553,630	403,137
648,882	16,522	553,260	402,832
649,897	16,495	552,711	402,333
650,912	16,543	551,695	401,673
651,926	16,879	546,093	398,348
652,941	16,803	538,161	392,351
653,955	16,466	533,865	388,411
654,970	16,856	532,803	388,499
655,985	17,250	532,370	389,050
656,999	17,325	531,906	388,847
658,014	17,280	531,380	388,326
659,028	17,350	530,709	387,961
660,043	17,351	530,257	387,598
661,058	17,412	529,877	387,425
662,072	17,383	529,310	386,910
663,087	17,079	528,826	385,832
664,101	16,943	528,344	385,137
665,116	16,936	527,679	384,601
666,131	16,328	526,783	382,537
667,145	15,915	526,322	381,235
668,160	16,164	526,196	381,673
669,174	16,370	525,745	381,777
670,189	15,986	525,187	380,472
671,204	15,732	524,620	379,456
672,218	15,518	524,183	378,623
673,233	15,756	524,029	379,014
674,247	16,726	524,354	381,401
675,262	17,676	524,580	383,672
676,276	17,893	524,430	384,016
677,291	17,944	524,113	383,865
678,306	17,839	523,842	383,397
679,320	17,882	523,363	383,107
680,335	17,895	522,905	382,769
681,349	17,968	522,707	382,753
682,364	18,147	522,454	382,935
683,379	18,161	522,089	382,665
684,393	18,164	521,826	382,446
685,408	18,375	521,440	382,598
686,422	18,408	521,027	382,336
687,437	18,322	520,570	381,777
688,452	18,335	520,218	381,511
689,466	18,448	519,977	381,555
690,481	18,457	519,612	381,272
691,495	18,293	519,182	380,558
692,510	18,117	518,815	379,863
693,525	18,199	518,386	379,699
694,539	18,246	518,126	379,580
695,554	18,177	517,685	379,069
696,568	18,106	517,338	378,624
697,583	18,114	517,156	378,476
698,598	18,142	517,000	378,389
699,612	18,221	516,659	378,281
700,627	18,159	516,350	377,885
701,641	18,190	516,070	377,714
702,656	18,228	515,639	377,449
703,671	18,237	515,437	377,288
704,685	18,250	515,206	377,114
705,700	18,267	514,886	376,885
706,714	18,326	514,590	376,764
707,729	18,300	514,259	376,430
708,744	18,242	514,080	376,140
709,758	18,304	513,791	376,032
710,773	18,364	513,479	375,902
711,787	18,558	513,259	376,133
712,802	18,844	513,195	376,680
713,816	19,101	512,949	377,028
714,831	19,116	512,665	376,820
715,846	19,080	512,283	376,427
716,860	19,168	511,848	376,266
717,875	19,282	511,571	376,278
718,889	19,180	511,353	375,861
719,904	19,190	510,963	375,564
720,919	19,254	510,497	375,326
721,933	19,161	510,209	374,879
722,948	19,122	509,937	374,562
723,962	19,178	509,506	374,335
724,977	19,101	509,265	373,956
725,992	19,101	508,963	373,701
727,006	19,044	508,661	373,322
728,021	18,979	508,227	372,831
729,035	18,977	507,872	372,533
730,050	19,021	507,633	372,419
731,065	19,072	507,379	372,310
732,079	19,075	507,115	372,092
733,094	18,784	506,742	371,155
734,108	18,713	506,502	370,793
735,123	18,549	506,188	370,177
736,138	18,422	505,797	369,584
737,152	18,355	505,487	369,181
738,167	18,304	505,220	368,843
739,181	18,330	504,896	368,629
740,196	18,455	504,765	368,770
741,211	18,724	504,746	369,302
742,225	19,000	504,539	369,712
743,240	19,039	504,419	369,674
744,254	19,087	504,236	369,612
745,269	19,123	503,927	369,429
746,284	19,174	503,791	369,407
747,298	19,240	503,498	369,299
748,313	19,312	503,177	369,186
749,327	19,146	502,855	368,562
750,342	19,139	502,640	368,356
751,356	19,189	502,224	368,125
752,371	19,196	501,930	367,892
753,386	19,215	501,648	367,694
754,400	19,256	501,418	367,580
755,415	19,311	501,120	367,446
756,429	19,302	500,782	367,148
757,444	19,179	500,562	366,691
758,459	19,130	500,252	366,327
759,473	19,094	499,804	365,891
760,488	19,100	499,592	365,716
761,502	18,964	499,221	365,123
762,517	18,944	498,877	364,796
763,532	18,896	498,589	364,453
764,546	18,961	498,240	364,304
765,561	18,916	497,800	363,853
766,575	18,853	497,565	363,516
767,590	18,678	497,255	362,888
768,605	18,738	496,962	362,768
769,619	18,739	496,730	362,569
770,634	18,708	496,348	362,192
771,648	18,611	496,000	361,702
772,663	18,581	495,658	361,357
773,678	18,579	495,357	361,102
774,692	18,662	495,027	361,004
775,707	18,577	494,843	360,659
776,721	18,615	494,580	360,515
777,736	18,623	494,327	360,316
778,751	18,647	494,082	360,157
779,765	18,589	493,821	359,812
780,780	18,676	493,542	359,760
781,794	18,681	493,179	359,474
782,809	18,699	492,752	359,168
783,824	19,089	490,368	358,211
784,838	19,214	485,786	355,089
785,853	19,061	482,405	352,274
786,867	19,266	481,346	351,888
787,882	19,505	481,401	352,385
788,897	18,488	489,705	356,320
789,911	18,841	503,829	367,318
790,926	19,464	512,273	374,794
791,940	19,287	513,678	375,405
792,955	19,240	513,552	375,176
793,969	19,187	513,558	375,032
794,984	19,177	513,776	375,136
795,999	19,202	514,481	375,672
797,013	19,253	514,678	375,895
798,028	19,258	514,271	375,575
799,042	19,234	513,998	375,290
800,057	19,163	513,958	375,072
801,072	18,963	513,824	374,506
802,086	18,747	513,643	373,872
803,101	18,807	513,136	373,600
804,115	18,866	512,694	373,371
805,130	18,869	512,321	373,074
806,145	18,602	512,111	372,309
807,159	18,502	511,550	371,651
808,174	18,443	510,883	371,006
809,188	18,489	510,228	370,597
810,203	18,443	509,728	370,101
811,218	18,464	509,518	369,963
812,232	18,432	509,608	369,926
813,247	18,398	509,850	369,994
814,261	18,549	509,819	370,266
815,276	18,772	509,288	370,328
816,291	18,698	508,646	369,669
817,305	18,919	508,028	369,662
818,320	19,242	507,817	370,170
819,334	19,545	507,681	370,690
820,349	19,690	507,779	371,040
821,364	19,783	508,147	371,476
822,378	19,903	508,084	371,654
823,393	19,869	507,340	371,004
824,407	19,811	506,926	370,545
825,422	19,803	506,732	370,353
826,437	19,748	506,503	370,035
827,451	19,631	506,263	369,576
828,466	19,481	505,849	368,922
829,480	19,466	505,426	368,548
830,495	19,331	504,941	367,873
831,509	19,133	504,199	366,877
832,524	18,858	503,463	365,726
833,539	18,791	502,739	365,024
834,553	18,645	502,262	364,336
835,568	18,676	502,257	364,366
836,582	18,697	502,487	364,545
837,597	18,736	502,396	364,529
838,612	18,675	501,960	364,051
839,626	18,716	501,223	363,570
840,641	18,685	500,384	362,864
841,655	18,667	500,004	362,519
842,670	18,592	500,277	362,528
843,685	18,688	500,496	362,857
844,699	18,763	500,431	362,936
845,714	18,805	499,854	362,574
846,728	18,704	499,178	361,839
847,743	18,715	498,949	361,663
848,758	18,667	499,029	361,589
849,772	18,678	499,049	361,594
850,787	18,678	498,845	361,414
851,801	18,758	498,381	361,214
852,816	18,606	497,895	360,511
853,831	18,689	497,744	360,545
854,845	18,658	497,963	360,606
855,860	19,010	496,774	360,450
856,874	19,348	488,656	355,226
857,889	18,828	478,674	346,889
858,904	18,294	473,921	342,347
859,918	18,410	472,682	341,653
860,933	18,329	472,094	341,036
861,947	18,401	471,555	340,760
862,962	18,198	470,962	339,897
863,977	18,142	470,486	339,413
864,991	18,203	470,032	339,175
866,006	18,220	469,751	338,978
867,020	18,286	469,464	338,870
868,035	18,368	469,072	338,719
869,049	18,327	468,733	338,364
870,064	18,330	468,475	338,154
871,079	18,324	468,172	337,893
872,093	18,304	467,844	337,586
873,108	18,271	467,545	337,276
874,122	18,275	467,175	336,987
875,137	18,193	466,753	336,491
876,152	17,462	465,898	334,410
877,166	16,380	465,090	331,677
878,181	15,970	464,689	330,557
879,195	16,071	464,429	330,542
880,210	16,320	464,203	330,839
881,225	16,437	464,034	330,920
882,239	16,423	463,689	330,616
883,254	16,335	463,368	330,186
884,268	16,314	463,198	329,993
885,283	16,200	462,845	329,491
886,298	16,145	462,554	329,148
887,312	16,293	462,462	329,341
888,327	16,881	462,439	330,443
889,341	17,083	462,339	330,736
890,356	17,118	462,149	330,639
891,371	17,250	461,837	330,643
892,385	17,380	461,471	330,604
893,400	17,378	461,265	330,424
894,414	17,305	461,146	330,167
895,429	17,359	460,708	329,929
896,444	17,315	460,484	329,655
897,458	17,322	460,175	329,417
898,473	17,410	459,930	329,383
899,487	17,325	459,612	328,961
900,502	17,452	459,267	328,931
901,517	17,413	459,069	328,686
902,531	17,396	458,798	328,429
903,546	17,351	458,581	328,157
904,560	17,384	458,220	327,934
905,575	17,262	457,858	327,411
906,589	17,975	454,251	326,166
907,604	17,868	446,647	320,477
908,619	17,326	440,584	315,093
909,633	17,223	438,422	313,330
910,648	17,304	437,671	312,914
911,662	17,245	437,220	312,455
912,677	17,308	436,735	312,198
913,692	17,385	435,992	311,780
914,706	17,473	435,563	311,606
915,721	17,400	435,247	311,219
916,735	17,486	434,875	311,083
917,750	17,459	434,594	310,805
918,765	17,566	434,249	310,726
919,779	17,496	433,985	310,381
920,794	17,548	433,706	310,250
921,808	17,527	433,408	309,971
922,823	17,550	433,123	309,781
923,838	17,549	432,738	309,476
924,852	17,479	432,453	309,118
925,867	17,226	431,884	308,225
926,881	16,741	431,372	306,953
927,896	16,694	431,066	306,624
928,911	17,080	431,042	307,279
929,925	17,337	430,827	307,563
930,940	17,418	430,624	307,537
931,954	17,414	430,366	307,320
932,969	17,323	430,045	306,898
933,984	16,971	429,534	305,872
934,998	16,383	429,076	304,460
936,013	16,011	428,528	303,373
937,027	15,643	427,991	302,305
938,042	15,825	427,977	302,596
939,057	16,632	428,153	304,144
940,071	17,048	428,158	304,868
941,086	17,033	427,870	304,610
942,100	17,050	427,489	304,341
943,115	16,944	427,228	303,940
944,130	16,874	426,934	303,578
945,144	16,857	426,617	303,295
946,159	16,927	426,351	303,203
947,173	17,069	426,166	303,299
948,188	17,154	425,885	303,225
949,202	17,135	425,628	302,981
950,217	17,018	425,373	302,564
951,232	16,822	425,131	302,017
952,246	16,973	424,861	302,066
953,261	16,958	424,596	301,823
954,275	16,797	424,368	301,348
955,290	16,860	424,160	301,287
956,305	16,919	423,781	301,095
957,319	16,848	423,433	300,695
958,334	16,776	423,128	300,324
959,348	16,642	422,766	299,804
960,363	16,615	422,529	299,562
961,378	16,594	422,360	299,379
962,392	16,617	422,025	299,156
963,407	16,445	421,716	298,606
964,421	16,421	421,432	298,335
965,436	16,523	421,184	298,314
966,451	16,445	420,949	297,983
967,465	16,580	420,513	297,886
968,480	16,497	420,256	297,531
969,494	16,452	419,946	297,206
970,509	16,317	419,580	296,684
971,524	16,244	419,216	296,272
972,538	16,206	418,925	295,974
973,553	16,179	418,590	295,663
974,567	16,263	418,404	295,653
975,582	16,194	418,137	295,317
976,597	16,253	417,934	295,252
977,611	16,503	417,845	295,598
978,626	16,504	417,522	295,347
979,640	16,185	417,167	294,512
980,655	15,976	416,896	293,931
981,670	16,064	416,541	293,807
982,684	16,170	416,416	293,878
983,699	16,188	416,188	293,722
984,713	16,060	415,920	293,286
985,728	15,930	415,625	292,824
986,742	15,812	415,341	292,393
987,757	15,936	415,083	292,401
988,772	16,034	414,992	292,481
989,786	16,080	414,710	292,337
990,801	16,076	414,418	292,098
991,815	16,134	414,222	292,035
992,830	16,027	413,925	291,613
993,845	15,798	413,582	290,950
994,859	15,858	413,438	290,928
995,874	15,960	413,301	290,981
996,888	16,163	413,041	291,123
997,903	16,059	412,777	290,731
998,918	15,980	412,524	290,391
999,932	15,956	412,399	290,237
1000,947	15,980	412,190	290,106
1001,961	16,140	411,938	290,177
1002,976	16,079	411,565	289,785
1003,991	15,843	411,383	289,225
1005,005	15,705	411,060	288,735
1006,020	15,760	410,745	288,582
1007,034	15,922	410,399	288,591
1008,049	15,900	410,161	288,360
1009,064	15,942	409,902	288,226
1010,078	15,945	409,721	288,078
1011,093	15,892	409,466	287,782
1012,107	15,796	409,143	287,366
1013,122	15,663	408,848	286,907
1014,137	15,630	408,769	286,769
1015,151	15,870	408,519	286,978
1016,166	16,074	408,272	287,126
1017,180	15,930	408,068	286,711
1018,195	15,998	407,862	286,658
1019,210	15,986	407,583	286,416
1020,224	15,842	407,287	285,938
1021,239	15,644	407,170	285,494
1022,253	15,837	406,991	285,670
1023,268	15,929	406,735	285,622
1024,282	15,919	406,430	285,366
1025,297	15,769	406,230	284,946
1026,312	15,578	405,912	284,375
1027,326	15,565	405,681	284,166
1028,341	15,802	405,542	284,444
1029,355	16,137	405,385	284,875
1030,370	16,006	405,163	284,471
1031,385	15,780	404,808	283,817
1032,399	15,644	404,546	283,379
1033,414	15,635	404,321	283,181
1034,428	15,763	404,087	283,208
1035,443	15,807	403,929	283,146
1036,458	15,872	403,700	283,069
1037,472	15,843	403,570	282,905
1038,487	15,869	403,287	282,725
1039,501	15,806	403,024	282,408
1040,516	15,623	402,804	281,923
1041,531	15,528	402,599	281,596
1042,545	15,695	402,456	281,750
1043,560	15,978	402,224	282,037
1044,574	15,954	402,037	281,840
1045,589	15,812	401,758	281,383
1046,604	15,579	401,376	280,701
1047,618	15,462	401,060	280,260
1048,633	15,526	400,803	280,162
1049,647	15,427	400,503	279,764
1050,662	15,383	400,204	279,456
1051,677	15,257	399,981	279,065
1052,691	15,314	399,677	278,923
1053,706	15,371	399,400	278,800
1054,720	15,263	399,252	278,493
1055,735	15,368	398,970	278,445
1056,750	15,425	398,639	278,285
1057,764	15,414	398,474	278,126
1058,779	15,396	398,236	277,905
1059,793	15,392	398,022	277,725
1060,808	15,490	397,871	277,757
1061,823	15,525	397,589	277,593
1062,837	15,379	397,298	277,125
1063,852	15,285	397,058	276,778
1064,866	15,224	396,849	276,508
1065,881	15,196	396,565	276,239
1066,895	15,250	396,354	276,156
1067,910	15,384	396,152	276,212
1068,925	15,389	395,908	276,025
1069,939	15,361	395,648	275,774
1070,954	15,311	395,382	275,482
1071,968	15,225	395,149	275,153
1072,983	15,175	394,935	274,899
1073,998	15,256	394,724	274,860
1075,012	15,265	394,500	274,695
1076,027	15,253	394,213	274,451
1077,041	15,286	394,072	274,382
1078,056	15,279	393,771	274,138
1079,071	15,166	393,473	273,721
1080,085	15,137	393,222	273,475
1081,100	15,145	393,014	273,318
1082,114	15,181	392,822	273,219
1083,129	15,326	392,658	273,318
1084,144	15,308	392,492	273,148
1085,158	15,420	392,239	273,130
1086,173	15,456	392,145	273,099
1087,187	15,431	391,982	272,921
1088,202	15,506	391,814	272,901
1089,217	15,428	391,619	272,616
1090,231	15,261	391,391	272,162
1091,246	15,198	391,037	271,788
1092,260	15,148	390,798	271,517
1093,275	15,235	390,658	271,538
1094,290	15,269	390,456	271,427
1095,304	15,260	390,280	271,268
1096,319	15,270	389,980	271,051
1097,333	15,493	389,724	271,209
1098,348	15,568	389,575	271,202
1099,363	15,567	389,361	271,028
1100,377	15,522	389,095	270,747
1101,392	15,643	388,752	270,678
1102,406	15,546	388,612	270,401
1103,421	15,568	388,459	270,307
1104,435	15,740	388,299	270,447
1105,450	15,690	388,056	270,174
1106,465	15,621	387,700	269,791
1107,479	15,429	387,397	269,249
1108,494	15,443	387,174	269,092
1109,508	15,564	386,955	269,109
1110,523	15,482	386,820	268,860
1111,538	15,607	386,672	268,935
1112,552	15,600	386,489	268,772
1113,567	15,599	386,203	268,548
1114,581	15,603	385,846	268,281
1115,596	15,742	385,683	268,367
1116,611	15,660	385,626	268,173
1117,625	15,814	385,387	268,228
1118,640	15,692	385,189	267,873
1119,654	15,736	385,019	267,801
1120,669	15,761	384,726	267,613
1121,684	15,811	384,583	267,569
1122,698	15,825	384,397	267,438
1123,713	15,719	384,177	267,094
1124,727	15,785	383,868	266,960
1125,742	15,625	383,620	266,510
1126,757	15,461	383,353	266,040
1127,771	15,296	383,139	265,607
1128,786	15,388	382,906	265,568
1129,800	15,283	382,716	265,246
1130,815	15,288	382,571	265,130
1131,830	15,562	382,318	265,365
1132,844	15,673	382,106	265,369
1133,859	15,709	381,892	265,254
1134,873	15,691	381,789	265,131
1135,888	15,695	381,659	265,024
1136,903	15,737	381,362	264,860
1137,917	15,591	381,127	264,443
1138,932	15,685	380,900	264,410
1139,946	15,827	380,738	264,496
1140,961	15,929	380,545	264,500
1141,975	15,814	380,275	264,108
1142,990	15,786	380,080	263,906
1144,005	15,733	379,848	263,638
1145,019	15,747	379,690	263,526
1146,034	15,794	379,458	263,417
1147,048	15,823	379,203	263,262
1148,063	15,916	378,970	263,223
1149,078	15,816	378,707	262,860
1150,092	15,606	378,419	262,310
1151,107	15,446	378,144	261,846
1152,121	15,519	377,893	261,762
1153,136	15,404	377,666	261,403
1154,151	15,415	377,345	261,175
1155,165	15,298	377,076	260,783
1156,180	15,264	376,701	260,448
1157,194	15,165	376,389	260,055
1158,209	15,215	376,220	259,993
1159,224	15,472	376,183	260,343
1160,238	15,702	375,990	260,544
1161,253	15,577	375,740	260,153
1162,267	15,370	375,439	259,602
1163,282	15,251	375,218	259,241
1164,297	15,397	374,951	259,260
1165,311	15,449	374,717	259,155
1166,326	15,483	374,542	259,065
1167,340	15,572	374,481	259,135
1168,355	15,734	374,333	259,260
1169,370	15,736	374,103	259,082
1170,384	15,787	373,799	258,926
1171,399	15,701	373,682	258,690
1172,413	15,718	373,416	258,510
1173,428	15,730	373,207	258,360
1174,443	15,797	373,034	258,320
1175,457	15,787	372,832	258,143
1176,472	15,702	372,597	257,825
1177,486	15,686	372,365	257,618
1178,501	15,636	372,148	257,369
1179,515	15,761	371,940	257,394
1180,530	15,674	371,651	257,038
1181,545	15,558	371,461	256,706
1182,559	15,555	371,251	256,534
1183,574	15,649	371,028	256,501
1184,588	15,642	370,887	256,370
1185,603	15,609	370,689	256,159
1186,618	15,615	370,427	255,966
1187,632	15,564	370,176	255,692
1188,647	15,688	369,973	255,718
1189,661	15,643	369,810	255,514
1190,676	15,695	369,546	255,388
1191,691	15,773	369,331	255,335
1192,705	15,766	369,054	255,111
1193,720	15,642	368,819	254,737
1194,734	15,634	368,657	254,591
1195,749	15,738	368,582	254,674
1196,764	15,832	368,310	254,606
1197,778	15,825	368,115	254,438
1198,793	15,828	367,914	254,281
1199,807	15,786	367,695	254,044
1200,822	15,811	367,470	253,904
1201,837	15,822	367,216	253,721
1202,851	15,752	367,067	253,491
1203,866	15,586	366,836	253,060
1204,880	15,522	366,543	252,737
1205,895	15,334	366,383	252,323
1206,910	15,506	366,185	252,422
1207,924	15,660	366,025	252,522
1208,939	15,795	365,821	252,561
1209,953	15,912	365,638	252,588
1210,968	15,918	365,448	252,443
1211,983	15,868	365,240	252,203
1212,997	15,750	365,046	251,870
1214,012	15,775	364,933	251,806
1215,026	15,800	364,661	251,634
1216,041	15,713	364,306	251,237
1217,056	15,576	364,054	250,836
1218,070	15,484	363,896	250,568
1219,085	15,545	363,626	250,450
1220,099	15,524	363,467	250,287
1221,114	15,402	363,338	249,996
1222,128	15,299	363,037	249,613
1223,143	15,302	362,851	249,467
1224,158	15,414	362,696	249,505
1225,172	15,448	362,494	249,395
1226,187	15,396	362,277	249,145
1227,201	15,478	361,927	249,004
1228,216	15,268	361,681	248,502
1229,231	15,164	361,448	248,167
1230,245	15,278	361,222	248,157
1231,260	15,363	361,074	248,160
1232,274	15,447	360,974	248,193
1233,289	15,541	360,769	248,170
1234,304	15,453	360,518	247,845
1235,318	15,234	360,262	247,323
1236,333	15,129	360,090	247,029
1237,347	15,229	359,850	246,989
1238,362	15,291	359,634	246,912
1239,377	15,222	359,438	246,653
1240,391	15,189	359,204	246,422
1241,406	15,432	359,052	246,653
1242,420	15,536	358,886	246,670
1243,435	15,480	358,689	246,430
1244,450	15,325	358,376	245,967
1245,464	15,312	358,093	245,731
1246,479	15,240	357,925	245,489
1247,493	15,216	357,732	245,300
1248,508	15,266	357,598	245,260
1249,523	15,278	357,419	245,132
1250,537	15,479	357,093	245,181
1251,552	15,537	356,920	245,125
1252,566	15,439	356,766	244,854
1253,581	15,409	356,573	244,657
1254,596	15,429	356,401	244,546
1255,610	15,344	356,141	244,222
1256,625	15,159	356,024	243,851
1257,639	15,309	355,793	243,889
1258,654	15,501	355,479	243,932
1259,668	15,352	355,277	243,555
1260,683	15,176	355,162	243,199
1261,698	15,298	354,983	243,231
1262,712	15,504	354,840	243,412
1263,727	15,518	354,628	243,264
1264,741	15,415	354,296	242,866
1265,756	15,391	353,978	242,592
1266,771	15,487	353,789	242,579
1267,785	15,465	353,829	242,555
1268,800	15,407	353,736	242,385
1269,814	15,495	353,493	242,324
1270,829	15,698	353,253	242,431
1271,844	15,788	353,008	242,371
1272,858	15,756	352,837	242,185
1273,873	15,808	352,739	242,172
1274,887	16,007	352,643	242,372
1275,902	16,188	352,520	242,526
1276,917	16,071	352,186	242,106
1277,931	15,883	351,930	241,638
1278,946	15,792	351,774	241,379
1279,960	15,997	351,639	241,559
1280,975	16,024	351,450	241,447
1281,990	16,032	351,314	241,344
1283,004	16,037	351,184	241,240
1284,019	15,905	351,000	240,903
1285,033	15,829	350,727	240,586
1286,048	15,789	350,524	240,369
1287,063	15,817	350,350	240,267
1288,077	15,888	350,106	240,181
1289,092	16,018	350,011	240,280
1290,106	16,176	349,896	240,405
1291,121	16,071	349,553	239,997
1292,136	15,805	349,212	239,365
1293,150	15,615	349,024	238,944
1294,165	15,898	348,874	239,223
1295,179	15,967	348,730	239,201
1296,194	16,060	348,544	239,183
1297,208	16,157	348,366	239,177
1298,223	15,976	348,179	238,772
1299,238	16,006	347,945	238,633
1300,252	16,011	347,800	238,519
1301,267	16,032	347,563	238,366
1302,281	16,055	347,345	238,228
1303,296	16,038	347,162	238,057
1304,311	16,148	346,911	238,019
1305,325	16,023	346,651	237,643
1306,340	15,794	346,418	237,139
1307,354	15,813	346,327	237,083
1308,369	16,061	346,174	237,306
1309,384	16,190	345,976	237,331
1310,398	16,083	345,789	237,031
1311,413	16,018	345,660	236,831
1312,427	16,038	345,400	236,660
1313,442	15,983	345,159	236,397
1314,457	15,867	345,020	236,118
1315,471	15,958	344,761	236,048
1316,486	16,144	344,645	236,207
1317,500	16,284	344,594	236,347
1318,515	16,325	344,410	236,259
1319,530	16,218	344,065	235,850
1320,544	16,108	343,842	235,523
1321,559	16,107	343,729	235,423
1322,573	16,299	343,622	235,598
1323,588	16,228	343,447	235,357
1324,603	16,169	343,152	235,053
1325,617	16,181	342,935	234,900
1326,632	16,166	342,930	234,854
1327,646	16,249	342,781	234,847
1328,661	16,204	342,501	234,572
1329,676	16,250	342,209	234,415
1330,690	16,196	342,070	234,224
1331,705	15,995	341,822	233,755
1332,719	15,931	341,538	233,451
1333,734	16,008	341,332	233,396
1334,749	16,093	341,164	233,378
1335,763	16,143	341,059	233,355
1336,778	16,381	340,897	233,554
1337,792	16,478	340,651	233,498
1338,807	16,200	340,461	232,963
1339,821	16,374	340,344	233,102
1340,836	16,738	340,264	233,529
1341,851	16,748	340,132	233,431
1342,865	16,653	339,807	233,057
1343,880	16,637	339,547	232,836
1344,894	16,470	339,447	232,517
1345,909	16,429	339,253	232,307
1346,924	16,336	339,012	231,994
1347,938	16,355	338,766	231,831
1348,953	16,391	338,636	231,772
1349,967	16,490	338,524	231,811
1350,982	16,701	338,331	231,946
1351,997	16,620	338,126	231,675
1353,011	16,516	337,962	231,399
1354,026	16,653	337,851	231,490
1355,040	16,774	337,751	231,567
1356,055	17,009	337,492	231,689
1357,070	17,022	337,287	231,546
1358,084	16,707	337,109	230,973
1359,099	16,834	336,995	231,048
1360,113	16,833	336,785	230,882
1361,128	16,917	336,576	230,834
1362,143	17,215	336,432	231,120
1363,157	17,371	336,232	231,174
1364,172	17,251	335,965	230,806
1365,186	17,227	335,848	230,673
1366,201	17,291	335,721	230,652
1367,216	17,291	335,512	230,488
1368,230	17,318	335,186	230,280
1369,245	17,197	334,938	229,926
1370,259	17,049	334,741	229,570
1371,274	17,047	334,663	229,494
1372,289	17,048	334,556	229,402
1373,303	17,171	334,494	229,505
1374,318	17,130	334,284	229,284
1375,332	17,132	333,987	229,063
1376,347	17,174	333,837	228,997
1377,361	17,024	333,753	228,716
1378,376	17,182	333,577	228,789
1379,391	17,367	333,421	228,910
1380,405	17,353	333,195	228,717
1381,420	16,611	332,715	227,370
1382,434	15,913	332,294	226,126
1383,449	16,056	332,183	226,222
1384,464	16,351	332,108	226,546
1385,478	16,857	332,041	227,159
1386,493	17,309	332,022	227,731
1387,507	17,490	332,032	227,961
1388,522	17,565	331,864	227,925
1389,537	17,529	331,593	227,671
1390,551	17,511	331,283	227,414
1391,566	17,206	330,897	226,721
1392,580	16,925	330,696	226,188
1393,595	17,177	330,785	226,566
1394,610	17,473	330,736	226,907
1395,624	17,850	330,576	227,279
1396,639	17,867	330,359	227,133
1397,653	17,786	330,190	226,889
1398,668	17,852	329,987	226,817
1399,683	17,841	329,734	226,608
1400,697	17,771	329,573	226,385
1401,712	17,819	329,408	226,315
1402,726	17,787	329,152	226,077
1403,741	17,772	328,951	225,899
1404,756	17,789	328,650	225,694
1405,770	17,705	328,399	225,392
1406,785	17,710	328,213	225,250
1407,799	17,673	328,060	225,076
1408,814	17,710	327,868	224,974
1409,829	17,656	327,692	224,761
1410,843	17,742	327,548	224,757
1411,858	17,784	327,122	224,500
1412,872	17,981	326,367	224,221
1413,887	17,785	325,834	223,577
1414,901	17,705	325,495	223,221
1415,916	17,693	325,185	222,973
1416,931	17,826	324,902	222,932
1417,945	17,787	324,633	222,677
1418,960	17,813	324,339	222,489
1419,974	17,656	324,175	222,153
1420,989	17,760	323,916	222,091
1422,004	17,761	323,713	221,934
1423,018	17,824	323,521	221,865
1424,033	17,785	323,337	221,668
1425,047	17,826	323,154	221,576
1426,062	17,785	322,885	221,318
1427,077	17,465	322,490	220,613
1428,091	17,015	322,084	219,733
1429,106	16,756	321,800	219,185
1430,120	16,828	321,582	219,111
1431,135	16,734	321,381	218,832
1432,150	16,591	321,177	218,489
1433,164	16,683	320,953	218,437
1434,179	16,655	320,694	218,205
1435,193	16,772	320,529	218,225
1436,208	16,863	320,475	218,286
1437,223	17,297	320,514	218,852
1438,237	17,817	320,505	219,495
1439,252	17,881	320,204	219,351
1440,266	17,126	319,750	218,053
1441,281	16,535	319,392	217,031
1442,296	16,344	319,140	216,595
1443,310	16,559	319,059	216,796
1444,325	17,227	319,197	217,727
1445,339	18,263	319,350	219,140
1446,354	19,140	319,554	220,383
1447,369	19,972	319,717	221,541
1448,383	20,927	319,875	222,852
1449,398	21,652	319,826	223,725
1450,412	21,132	319,407	222,749
1451,427	20,356	318,917	221,399
1452,441	19,607	318,497	220,133
1453,456	19,168	318,002	219,213
1454,471	18,545	317,571	218,105
1455,485	18,124	317,134	217,250
1456,500	17,925	316,907	216,822
1457,514	18,172	316,896	217,110
1458,529	18,444	316,828	217,389
1459,544	18,515	316,669	217,351
1460,558	18,113	316,373	216,619
1461,573	17,584	315,877	215,591
1462,587	16,865	315,525	214,423
1463,602	16,904	315,481	214,423
1464,617	17,555	315,533	215,262
1465,631	18,098	315,458	215,877
1466,646	18,152	315,287	215,810
1467,660	17,721	314,942	215,012
1468,675	17,142	314,535	213,985
1469,690	16,718	314,111	213,145
1470,704	16,151	313,742	212,162
1471,719	16,012	313,446	211,768
1472,733	16,139	313,398	211,877
1473,748	16,802	313,542	212,788
1474,763	18,016	313,710	214,408
1475,777	18,420	313,632	214,842
1476,792	18,285	313,317	214,438
1477,806	18,366	313,047	214,336
1478,821	18,340	312,882	214,171
1479,836	18,335	312,688	214,013
1480,850	18,339	312,578	213,924
1481,865	18,273	312,418	213,714
1482,879	18,333	312,145	213,583
1483,894	18,003	312,655	213,501
1484,909	17,913	316,111	215,728
1485,923	18,335	320,882	219,505
1486,938	18,518	323,324	221,392
1487,952	18,262	323,641	221,258
1488,967	18,281	323,435	221,123
1489,982	18,316	323,251	221,023
1490,996	18,420	323,081	221,021
1492,011	18,402	322,976	220,906
1493,025	18,287	322,847	220,651
1494,040	18,284	322,650	220,492
1495,054	18,230	322,485	220,291
1496,069	18,340	322,244	220,248
1497,084	18,256	322,061	219,996
1498,098	18,154	321,908	219,740
1499,113	18,231	321,646	219,642
1500,127	18,245	321,359	219,444
1501,142	18,329	321,160	219,396
1502,157	18,428	321,081	219,449
1503,171	18,726	320,930	219,709
1504,186	18,906	320,635	219,717
1505,200	18,596	320,321	219,087
1506,215	18,434	320,252	218,813
1507,230	18,986	320,262	219,505
1508,244	19,428	320,262	220,050
1509,259	19,889	320,161	220,548
1510,273	19,978	319,898	220,460
1511,288	19,577	319,585	219,715
1512,303	19,422	319,279	219,289
1513,317	19,481	319,012	219,162
1514,332	18,709	318,436	217,767
1515,346	17,639	317,767	215,935
1516,361	16,706	317,388	214,477
1517,376	16,540	317,083	214,043
1518,390	16,385	316,729	213,588
1519,405	15,990	316,449	212,882
1520,419	16,315	316,406	213,244
1521,434	16,961	316,372	214,017
1522,449	16,924	316,275	213,887
1523,463	16,909	316,107	213,735
1524,478	16,836	315,815	213,427
1525,492	16,934	315,570	213,366
1526,507	16,895	315,414	213,192
1527,522	16,968	315,265	213,164
1528,536	16,986	315,107	213,062
1529,551	16,750	314,937	212,631
1530,565	16,735	314,760	212,474
1531,580	16,737	314,536	212,307
1532,594	16,721	314,352	212,144
1533,609	16,550	314,209	211,814
1534,624	16,727	313,984	211,865
1535,638	16,774	313,763	211,756
1536,653	16,654	313,610	211,484
1537,667	16,746	313,387	211,430
1538,682	16,700	313,179	211,214
1539,697	16,511	313,013	210,847
1540,711	16,645	312,842	210,881
1541,726	16,791	312,622	210,896
1542,740	16,646	312,401	210,547
1543,755	16,627	312,169	210,348
1544,770	16,578	311,976	210,138
1545,784	16,645	311,763	210,060
1546,799	16,583	311,651	209,889
1547,813	16,538	311,538	209,739
1548,828	16,624	311,347	209,699
1549,843	16,698	311,135	209,628
1550,857	16,595	310,854	209,293
1551,872	16,475	310,630	208,975
1552,886	16,356	310,498	208,721
1553,901	16,414	310,331	208,662
1554,916	16,442	310,117	208,533
1555,930	16,359	309,923	208,283
1556,945	16,520	309,756	208,351
1557,959	16,631	309,601	208,365
1558,974	16,491	309,435	208,061
1559,989	16,415	309,200	207,792
1561,003	16,383	309,012	207,608
1562,018	16,476	308,830	207,582
1563,032	16,588	308,613	207,555
1564,047	16,617	308,417	207,440
1565,062	16,490	308,256	207,159
1566,076	16,321	308,041	206,789
1567,091	16,484	307,852	206,842
1568,105	16,458	307,696	206,687
1569,120	16,302	307,387	206,271
1570,134	16,286	307,169	206,087
1571,149	16,219	306,967	205,852
1572,164	16,124	306,823	205,621
1573,178	16,107	306,792	205,561
1574,193	16,359	306,645	205,751
1575,207	16,511	306,464	205,797
1576,222	16,345	306,240	205,427
1577,237	16,113	305,987	204,957
1578,251	16,111	305,889	204,871
1579,266	16,175	305,714	204,813
1580,280	16,086	305,505	204,546
1581,295	15,940	305,340	204,241
1582,310	15,948	305,145	204,102
1583,324	16,019	304,895	204,002
1584,339	16,062	304,741	203,934
1585,353	16,130	304,638	203,930
1586,368	16,106	304,336	203,680
1587,383	16,069	304,154	203,496
1588,397	15,971	304,114	203,332
1589,412	16,160	303,939	203,426
1590,426	16,003	303,771	203,105
1591,441	16,017	303,645	203,020
1592,456	16,281	303,484	203,212
1593,470	16,015	303,335	202,775
1594,485	15,887	303,097	202,444
1595,499	15,878	302,847	202,248
1596,514	15,980	302,699	202,254
1597,529	15,967	302,612	202,163
1598,543	16,043	302,479	202,146
1599,558	15,922	302,222	201,812
1600,572	15,918	302,063	201,683
1601,587	16,015	301,887	201,664
1602,602	15,858	301,666	201,311
1603,616	15,870	301,482	201,184
1604,631	15,973	301,319	201,181
1605,645	15,974	301,150	201,052
1606,660	15,983	300,959	200,917
1607,674	15,909	300,784	200,694
1608,689	15,992	300,635	200,675
1609,704	16,027	300,435	200,565
1610,718	15,864	300,316	200,274
1611,733	15,972	300,179	200,294
1612,747	15,947	299,993	200,123
1613,762	15,746	299,856	199,775
1614,777	15,640	299,598	199,460
1615,791	15,701	299,384	199,372
1616,806	15,754	299,242	199,322
1617,820	15,660	299,106	199,103
1618,835	15,778	298,899	199,087
1619,850	15,810	298,759	199,014
1620,864	15,866	298,639	198,983
1621,879	15,883	298,445	198,855
1622,893	15,964	298,285	198,827
1623,908	15,883	298,103	198,593
1624,923	15,904	297,933	198,487
1625,937	15,976	297,716	198,410
1626,952	15,984	297,568	198,303
1627,966	16,076	297,430	198,301
1628,981	16,104	297,246	198,194
1629,996	15,928	297,086	197,862
1631,010	15,819	296,924	197,610
1632,025	15,762	296,733	197,398
1633,039	15,692	296,558	197,182
1634,054	15,823	296,443	197,242
1635,069	15,945	296,271	197,253
1636,083	15,799	296,099	196,950
1637,098	15,811	296,006	196,885
1638,112	15,848	295,847	196,805
1639,127	15,889	295,591	196,665
1640,142	15,910	295,370	196,525
1641,156	15,817	295,203	196,288
1642,171	15,747	295,001	196,055
1643,185	15,814	294,851	196,017
1644,200	16,031	294,702	196,152
1645,215	15,965	294,536	195,947
1646,229	15,851	294,384	195,696
1647,244	15,880	294,200	195,590
1648,258	15,944	294,079	195,568
1649,273	15,938	293,913	195,432
1650,287	15,958	293,734	195,320
1651,302	15,884	293,573	195,109
1652,317	15,978	293,397	195,084
1653,331	15,948	293,195	194,897
1654,346	15,987	293,036	194,820
1655,360	15,975	292,879	194,685
1656,375	15,894	292,661	194,428
1657,390	15,812	292,490	194,203
1658,404	15,860	292,311	194,123
1659,419	15,829	292,147	193,960
1660,433	15,797	291,999	193,808
1661,448	15,759	291,798	193,614
1662,463	15,882	291,599	193,606
1663,477	15,880	291,399	193,455
1664,492	15,832	291,192	193,244
1665,506	15,993	291,038	193,310
1666,521	15,977	290,945	193,212
1667,536	15,933	290,866	193,093
1668,550	15,988	290,659	193,002
1669,565	16,004	290,463	192,872
1670,579	15,836	290,341	192,582
1671,594	15,825	290,151	192,426
1672,609	15,794	289,949	192,239
1673,623	15,873	289,751	192,182
1674,638	15,702	289,565	191,847
1675,652	15,664	289,436	191,701
1676,667	15,720	289,352	191,692
1677,682	15,685	289,224	191,550
1678,696	15,577	289,015	191,272
1679,711	15,620	288,835	191,184
1680,725	15,610	288,717	191,079
1681,740	15,639	288,533	190,973
1682,755	15,753	288,317	190,942
1683,769	15,742	288,128	190,788
1684,784	15,575	287,984	190,487
1685,798	15,774	287,834	190,596
1686,813	15,780	287,681	190,484
1687,827	15,707	287,533	190,287
1688,842	15,626	287,352	190,058
1689,857	15,628	287,190	189,937
1690,871	15,652	287,026	189,838
1691,886	15,497	286,855	189,533
1692,900	15,458	286,642	189,332
1693,915	15,308	286,431	189,006
1694,930	15,394	286,315	189,010
1695,944	15,602	286,171	189,133
1696,959	15,555	285,993	188,946
1697,973	15,497	285,848	188,768
1698,988	15,547	285,741	188,737
1700,003	15,619	285,617	188,719
1701,017	15,683	285,405	188,634
1702,032	15,650	285,194	188,441
1703,046	15,607	285,025	188,264
1704,061	15,493	284,902	188,038
1705,076	15,656	284,780	188,124
1706,090	15,788	284,631	188,157
1707,105	15,704	284,387	187,885
1708,119	15,486	284,165	187,479
1709,134	15,680	284,043	187,598
1710,149	15,672	283,895	187,474
1711,163	15,796	283,745	187,497
1712,178	15,771	283,660	187,396
1713,192	15,689	283,558	187,221
1714,207	15,935	283,434	187,397
1715,222	15,989	283,300	187,351
1716,236	15,904	283,119	187,120
1717,251	15,855	282,897	186,903
1718,265	15,869	282,688	186,764
1719,280	15,778	282,499	186,521
1720,295	15,843	282,364	186,487
1721,309	15,830	282,283	186,404
1722,324	15,989	282,105	186,446
1723,338	15,887	281,923	186,196
1724,353	15,786	281,762	185,961
1725,367	15,693	281,638	185,761
1726,382	15,793	281,487	185,754
1727,397	15,670	281,259	185,452
1728,411	15,630	281,132	185,309
1729,426	15,782	280,912	185,313
1730,440	15,764	280,667	185,116
1731,455	15,674	280,609	184,962
1732,470	15,687	280,497	184,887
1733,484	15,765	280,365	184,869
1734,499	15,674	280,261	184,684
1735,513	15,664	280,074	184,533
1736,528	15,843	279,853	184,568
1737,543	15,733	279,693	184,326
1738,557	15,587	279,561	184,061
1739,572	15,640	279,422	184,012
1740,586	15,572	279,278	183,827
1741,601	15,487	279,078	183,586
1742,616	15,400	278,856	183,329
1743,630	15,334	278,743	183,166
1744,645	15,445	278,649	183,209
1745,659	15,646	278,447	183,280
1746,674	15,504	278,279	182,998
1747,689	15,517	278,124	182,894
1748,703	15,493	277,991	182,764
1749,718	15,721	277,875	182,920
1750,732	15,836	277,702	182,915
1751,747	15,792	277,473	182,700
1752,762	15,807	277,395	182,649
1753,776	15,716	277,192	182,400
1754,791	15,705	276,942	182,208
1755,805	15,461	276,884	181,889
1756,820	15,566	276,720	181,879
1757,835	15,715	276,520	181,892
1758,849	15,996	276,435	182,124
1759,864	16,046	276,229	182,027
1760,878	15,889	276,003	181,692
1761,893	15,799	275,931	181,532
1762,908	15,862	275,821	181,510
1763,922	15,805	275,658	181,326
1764,937	15,708	275,495	181,098
1765,951	15,882	275,371	181,189
1766,966	15,904	275,166	181,061
1767,980	15,869	274,959	180,871
1768,995	15,851	274,848	180,763
1770,010	15,936	274,720	180,754
1771,024	15,808	274,602	180,523
1772,039	15,941	274,414	180,526
1773,053	15,987	274,228	180,437
1774,068	15,853	274,064	180,169
1775,083	15,941	273,890	180,133
1776,097	15,942	273,712	180,001
1777,112	15,794	273,584	179,743
1778,126	15,727	273,439	179,561
1779,141	15,780	273,286	179,500
1780,156	15,728	273,183	179,361
1781,170	15,711	272,974	179,190
1782,185	15,733	272,706	179,022
1783,199	15,587	272,570	178,761
1784,214	15,737	272,455	178,830
1785,229	15,803	272,337	178,807
1786,243	15,769	272,209	178,671
1787,258	15,726	271,997	178,470
1788,272	15,654	271,860	178,288
1789,287	15,766	271,698	178,285
1790,302	15,608	271,527	177,989
1791,316	15,556	271,389	177,828
1792,331	15,722	271,185	177,854
1793,345	15,654	271,016	177,655
1794,360	15,720	270,916	177,644
1795,375	15,683	270,729	177,466
1796,389	15,821	270,431	177,401
1797,404	15,671	270,309	177,147
1798,418	15,487	270,241	176,893
1799,433	15,634	270,079	176,927
1800,448	15,698	269,915	176,870
1801,462	15,688	269,745	176,733
1802,477	15,671	269,607	176,609
1803,491	15,639	269,449	176,457
1804,506	15,730	269,349	176,471
1805,520	15,792	269,197	176,421
1806,535	15,611	269,014	176,096
1807,550	15,594	268,925	176,004
1808,564	15,690	268,773	175,990
1809,579	15,726	268,644	175,927
1810,593	15,656	268,500	175,744
1811,608	15,653	268,329	175,613
1812,623	15,727	268,197	175,588
1813,637	15,795	268,058	175,553
1814,652	15,666	267,860	175,274
1815,666	15,561	267,670	175,025
1816,681	15,750	267,512	175,102
1817,696	15,790	267,399	175,055
1818,710	15,941	267,292	175,126
1819,725	15,865	267,117	174,917
1820,739	15,918	266,971	174,860
1821,754	15,989	266,831	174,827
1822,769	15,975	266,711	174,718
1823,783	15,992	266,557	174,620
1824,798	16,138	266,387	174,644
1825,812	16,072	266,273	174,486
1826,827	15,951	266,168	174,276
1827,842	15,943	266,032	174,163
1828,856	15,992	265,847	174,078
1829,871	15,960	265,683	173,922
1830,885	15,886	265,563	173,751
1831,900	15,884	265,377	173,612
1832,915	15,933	265,208	173,537
1833,929	15,919	265,106	173,440
1834,944	15,947	264,986	173,376
1835,958	15,877	264,839	173,192
1836,973	15,916	264,668	173,105
1837,988	16,077	264,475	173,128
1839,002	16,111	264,336	173,058
1840,017	15,976	264,232	172,835
1841,031	16,114	264,138	172,900
1842,046	16,100	264,029	172,799
1843,060	16,032	263,809	172,570
1844,075	15,938	263,582	172,310
1845,090	15,808	263,401	172,044
1846,104	15,998	263,275	172,140
1847,119	16,092	263,175	172,155
1848,133	15,944	263,056	171,912
1849,148	15,989	262,880	171,826
1850,163	15,990	262,638	171,655
1851,177	15,982	262,505	171,544
1852,192	16,077	262,436	171,581
1853,206	16,088	262,308	171,493
1854,221	16,025	262,104	171,281
1855,236	15,990	261,919	171,109
1856,250	15,988	261,787	171,006
1857,265	15,990	261,599	170,871
1858,279	15,641	261,448	170,402
1859,294	15,683	261,294	170,329
1860,309	16,017	261,142	170,553
1861,323	16,127	261,039	170,582
1862,338	15,978	260,914	170,335
1863,352	16,055	260,801	170,323
1864,367	16,000	260,667	170,166
1865,382	16,127	260,527	170,188
1866,396	16,041	260,398	170,001
1867,411	16,029	260,242	169,872
1868,425	16,060	260,051	169,763
1869,440	16,119	259,854	169,679
1870,455	16,084	259,752	169,563
1871,469	15,864	259,580	169,214
1872,484	15,651	259,363	168,844
1873,498	15,808	259,321	168,959
1874,513	15,799	259,194	168,853
1875,528	16,050	258,938	168,922
1876,542	15,978	258,776	168,730
1877,557	15,898	258,693	168,580
1878,571	15,937	258,568	168,523
1879,586	15,870	258,386	168,323
1880,600	15,943	258,224	168,275
1881,615	15,986	258,143	168,250
1882,630	15,945	257,951	168,070
1883,644	15,962	257,723	167,923
1884,659	15,934	257,631	167,821
1885,673	15,809	257,493	167,591
1886,688	15,852	257,308	167,499
1887,703	15,955	257,167	167,495
1888,717	15,823	256,974	167,222
1889,732	15,929	256,801	167,201
1890,746	15,950	256,712	167,148
1891,761	15,971	256,687	167,138
1892,776	16,250	256,585	167,334
1893,790	16,208	256,401	167,158
1894,805	16,101	256,240	166,932
1895,819	16,059	256,073	166,767
1896,834	15,927	255,905	166,513
1897,849	16,188	255,708	166,627
1898,863	16,220	255,576	166,558
1899,878	16,001	255,500	166,277
1900,892	16,141	255,317	166,282
1901,907	16,309	255,173	166,338
1902,922	16,085	255,021	166,004
1903,936	16,113	254,830	165,892
1904,951	16,269	254,699	165,946
1905,965	16,273	254,601	165,871
1906,980	16,156	254,469	165,656
1907,995	16,172	254,330	165,567
1909,009	16,225	254,224	165,535
1910,024	16,178	254,109	165,399
1911,038	16,123	253,903	165,197
1912,053	16,381	253,719	165,315
1913,068	16,297	253,624	165,157
1914,082	16,066	253,550	164,868
1915,097	16,323	253,410	165,013
1916,111	16,393	253,267	164,974
1917,126	16,326	253,134	164,808
1918,141	16,211	252,919	164,540
1919,155	16,247	252,763	164,460
1920,170	16,321	252,697	164,474
1921,184	16,315	252,602	164,392
1922,199	16,638	252,435	164,582
1923,213	16,704	252,276	164,529
1924,228	16,493	252,156	164,231
1925,243	16,480	252,074	164,151
1926,257	16,642	251,974	164,228
1927,272	16,545	251,829	164,025
1928,286	16,450	251,711	163,842
1929,301	16,564	251,551	163,833
1930,316	16,529	251,381	163,673
1931,330	16,414	251,311	163,503
1932,345	16,637	251,237	163,656
1933,359	16,642	251,038	163,516
1934,374	16,528	250,848	163,269
1935,389	16,439	250,708	163,077
1936,403	16,643	250,601	163,189
1937,418	16,549	250,470	162,999
1938,432	16,387	250,342	162,746
1939,447	16,455	250,292	162,764
1940,462	16,720	250,142	162,907
1941,476	16,862	249,910	162,878
1942,491	16,782	249,836	162,738
1943,505	16,570	249,734	162,454
1944,520	16,696	249,607	162,478
1945,535	16,525	249,531	162,250
1946,549	16,638	249,319	162,207
1947,564	16,631	249,140	162,069
1948,578	16,752	248,997	162,077
1949,593	16,812	248,848	162,023
1950,608	16,576	248,720	161,700
1951,622	16,699	248,549	161,692
1952,637	16,922	248,379	161,779
1953,651	16,911	248,274	161,687
1954,666	16,883	248,221	161,611
1955,681	16,892	248,086	161,517
1956,695	17,013	247,982	161,550
1957,710	16,835	247,857	161,285
1958,724	16,798	247,736	161,157
1959,739	17,030	247,557	161,247
1960,753	16,953	247,409	161,063
1961,768	16,984	247,374	161,055
1962,783	17,121	247,231	161,078
1963,797	17,032	247,048	160,860
1964,812	17,063	246,961	160,819
1965,826	17,197	246,802	160,828
1966,841	17,172	246,652	160,693
1967,856	17,102	246,578	160,564
1968,870	17,248	246,468	160,616
1969,885	16,879	246,287	160,135
1970,899	16,841	246,106	159,968
1971,914	16,922	245,945	159,925
1972,929	16,773	245,787	159,667
1973,943	16,789	245,689	159,604
1974,958	17,307	245,705	160,089
1975,972	17,874	245,908	160,741
1976,987	18,966	246,158	161,919
1978,002	19,386	246,087	162,253
1979,016	19,576	245,909	162,301
1980,031	19,834	245,923	162,538
1981,045	20,004	245,910	162,675
1982,060	19,801	245,731	162,351
1983,075	19,373	245,465	161,759
1984,089	18,997	245,072	161,135
1985,104	18,678	244,864	160,685
1986,118	18,922	244,805	160,860
1987,133	18,934	244,648	160,754
1988,148	18,552	244,479	160,271
1989,162	18,436	244,310	160,038
1990,177	18,400	244,118	159,865
1991,191	18,415	243,976	159,771
1992,206	18,296	243,818	159,542
1993,221	18,392	243,712	159,549
1994,235	18,474	243,590	159,531
1995,250	18,532	243,424	159,463
1996,264	18,491	243,294	159,325
1997,279	18,409	243,140	159,134
1998,293	18,431	242,972	159,030
1999,308	18,545	242,837	159,034
2000,323	18,580	242,699	158,961
2001,337	18,345	242,604	158,667
2002,352	18,403	242,459	158,613
2003,366	18,661	242,232	158,689
2004,381	19,367	241,301	158,715
2005,396	19,199	239,704	157,496
2006,410	18,766	238,593	156,359
2007,425	18,488	238,226	155,852
2008,439	18,372	238,102	155,651
2009,454	18,367	238,021	155,580
2010,469	18,491	237,921	155,613
2011,483	18,409	237,763	155,422
2012,498	18,515	237,592	155,392
2013,512	18,463	237,501	155,271
2014,527	18,407	237,383	155,130
2015,542	18,452	237,191	155,032
2016,556	18,497	237,072	154,981
2017,571	18,398	236,973	154,813
2018,585	18,309	236,789	154,599
2019,600	18,483	236,549	154,585
2020,615	18,562	236,225	154,432
2021,629	18,541	235,849	154,153
2022,644	18,573	235,695	154,067
2023,658	19,180	235,526	154,488
2024,673	18,875	235,246	154,017
2025,688	18,535	234,996	153,535
2026,702	19,082	234,858	153,921
2027,717	19,479	234,836	154,248
2028,731	19,960	234,796	154,638
2029,746	20,120	234,596	154,635
2030,761	20,011	234,330	154,349
2031,775	19,602	234,169	153,865
2032,790	19,633	234,085	153,824
2033,804	19,143	233,860	153,226
2034,819	18,021	233,432	151,936
2035,834	17,389	233,107	151,149
2036,848	16,894	232,969	150,607
2037,863	16,939	232,917	150,600
2038,877	17,099	232,801	150,654
2039,892	16,964	232,729	150,474
2040,906	17,197	232,711	150,655
2041,921	17,267	232,605	150,635
2042,936	17,189	232,529	150,504
2043,950	17,214	232,494	150,489
2044,965	17,324	232,402	150,514
2045,979	17,255	232,266	150,352
2046,994	17,134	232,099	150,124
2048,009	17,233	232,077	150,184
2049,023	17,000	232,046	149,945
2050,038	16,886	231,899	149,735
2051,052	17,029	231,735	149,742
2052,067	17,043	231,542	149,617
2053,082	16,940	231,417	149,432
2054,096	17,006	231,296	149,399
2055,111	17,023	231,102	149,276
2056,125	16,828	230,907	148,965
2057,140	17,052	230,702	149,016
2058,155	17,045	230,469	148,846
2059,169	16,802	230,227	148,464
2060,184	16,882	229,955	148,345
2061,198	17,085	229,699	148,345
2062,213	16,832	229,477	147,967
2063,228	16,657	229,215	147,633
2064,242	16,700	229,011	147,526
2065,257	16,703	228,807	147,383
2066,271	16,656	228,582	147,184
2067,286	16,690	228,423	147,098
2068,301	16,785	228,257	147,061
2069,315	17,062	228,046	147,153
2070,330	16,695	227,931	146,747
2071,344	16,613	227,832	146,599
2072,359	16,555	227,827	146,533
2073,374	16,556	227,898	146,567
2074,388	16,532	227,881	146,522
2075,403	16,562	227,780	146,470
2076,417	16,689	227,806	146,584
2077,432	16,648	227,758	146,504
2078,446	16,681	227,658	146,455
2079,461	16,548	227,570	146,271
2080,476	16,482	227,510	146,162
2081,490	16,584	227,480	146,218
2082,505	16,482	227,421	146,079
2083,519	16,620	227,342	146,135
2084,534	16,692	227,193	146,089
2085,549	16,587	226,996	145,859
2086,563	16,406	226,833	145,584
2087,578	16,664	226,715	145,719
2088,592	16,622	226,599	145,595
2089,607	16,464	226,431	145,338
2090,622	16,523	226,252	145,261
2091,636	16,454	226,038	145,052
2092,651	16,281	225,885	144,792
2093,665	16,421	225,770	144,825
2094,680	16,461	225,566	144,717
2095,695	16,366	225,290	144,445
2096,709	16,369	225,062	144,289
2097,724	16,338	224,924	144,161
2098,738	16,314	224,655	143,955
2099,753	16,310	224,326	143,728
2100,768	16,321	224,142	143,607
2101,782	16,276	224,023	143,480
2102,797	16,381	223,856	143,449
2103,811	16,253	223,666	143,206
2104,826	16,506	223,500	143,302
2105,841	16,317	223,309	143,006
2106,855	16,149	223,180	142,769
2107,870	16,134	223,120	142,706
2108,884	16,211	223,014	142,690
2109,899	16,270	222,876	142,639
2110,914	16,347	222,893	142,702
2111,928	16,243	223,014	142,680
2112,943	16,306	222,969	142,691
2113,957	16,103	222,925	142,479
2114,972	16,193	222,955	142,561
2115,986	16,363	222,927	142,674
2117,001	16,381	222,887	142,651
2118,016	16,241	222,830	142,484
2119,030	16,174	222,782	142,385
2120,045	15,866	222,667	142,039
2121,059	16,027	222,518	142,067
2122,074	15,984	222,383	141,931
2123,089	16,174	222,249	141,993
2124,103	16,164	222,067	141,856
2125,118	16,033	221,921	141,640
2126,132	15,793	221,748	141,316
2127,147	16,184	221,531	141,493
2128,162	16,189	221,383	141,390
2129,176	16,144	221,201	141,224
2130,191	16,099	220,952	141,015
2131,205	15,943	220,803	140,777
2132,220	16,045	220,626	140,736
2133,235	15,998	220,464	140,582
2134,249	15,982	220,222	140,401
2135,264	16,008	219,996	140,266
2136,278	15,949	219,840	140,105
2137,293	15,776	219,556	139,769
2138,308	15,862	219,357	139,701
2139,322	16,061	219,272	139,800
2140,337	16,091	219,091	139,696
2141,351	16,103	218,996	139,634
2142,366	16,156	218,894	139,600
2143,381	16,219	218,784	139,569
2144,395	16,158	218,685	139,444
2145,410	16,278	218,601	139,477
2146,424	16,095	218,526	139,266
2147,439	16,127	218,432	139,220
2148,454	16,118	218,366	139,158
2149,468	16,111	218,338	139,122
2150,483	16,081	218,346	139,090
2151,497	15,886	218,297	138,886
2152,512	15,923	218,204	138,845
2153,526	16,152	218,252	139,052
2154,541	16,140	218,187	138,988
2155,556	16,291	218,155	139,079
2156,570	16,086	218,050	138,832
2157,585	16,225	217,930	138,857
2158,599	16,108	217,833	138,687
2159,614	16,111	217,706	138,596
2160,629	15,963	217,646	138,424
2161,643	16,253	217,510	138,564
2162,658	16,360	217,331	138,525
2163,672	16,295	217,060	138,287
2164,687	16,266	216,746	138,051
2165,702	16,051	216,609	137,776
2166,716	16,108	216,435	137,700
2167,731	16,086	216,275	137,567
2168,745	16,409	216,076	137,692
2169,760	16,345	215,859	137,490
2170,775	16,215	215,639	137,232
2171,789	16,202	215,415	137,066
2172,804	16,320	215,230	137,032
2173,818	16,039	215,058	136,683
2174,833	16,033	214,911	136,573
2175,848	15,990	214,827	136,472
2176,862	16,175	214,664	136,506
2177,877	16,243	214,559	136,482
2178,891	15,914	214,419	136,116
2179,906	16,122	214,296	136,193
2180,921	16,244	214,207	136,223
2181,935	16,203	214,170	136,154
2182,950	16,186	214,080	136,072
2183,964	16,118	213,979	135,941
2184,979	16,245	213,892	135,975
2185,994	16,198	213,839	135,892
2187,008	15,930	213,765	135,617
2188,023	16,216	213,676	135,778
2189,037	16,093	213,620	135,633
2190,052	16,016	213,618	135,557
2191,067	16,060	213,669	135,612
2192,081	16,109	213,575	135,580
2193,096	15,888	213,486	135,334
2194,110	15,765	213,402	135,170
2195,125	15,957	213,271	135,229
2196,139	15,945	213,228	135,180
2197,154	16,002	213,147	135,163
2198,169	16,022	212,959	135,048
2199,183	15,972	212,823	134,909
2200,198	15,821	212,673	134,682
2201,212	15,869	212,524	134,614
2202,227	15,864	212,286	134,447
2203,242	15,846	212,024	134,255
2204,256	15,716	211,846	134,026
2205,271	15,848	211,701	134,028
2206,285	15,851	211,459	133,866
2207,300	15,760	211,227	133,634
2208,315	15,815	211,005	133,526
2209,329	15,806	210,769	133,358
2210,344	15,840	210,562	133,241
2211,358	15,592	210,482	132,983
2212,373	15,657	210,300	132,908
2213,388	15,788	210,180	132,923
2214,402	15,934	210,110	132,983
2215,417	15,841	210,081	132,879
2216,431	15,887	210,040	132,878
2217,446	15,863	209,972	132,805
2218,461	15,830	209,950	132,753
2219,475	15,962	209,871	132,795
2220,490	15,877	209,775	132,656
2221,504	15,913	209,749	132,656
2222,519	15,979	209,725	132,681
2223,534	15,923	209,665	132,586
2224,548	16,042	209,593	132,623
2225,563	15,915	209,508	132,458
2226,577	15,648	209,557	132,267
2227,592	15,760	209,423	132,259
2228,607	15,895	209,280	132,262
2229,621	15,921	209,242	132,248
2230,636	16,046	209,093	132,239
2231,650	16,074	208,953	132,161
2232,665	15,982	208,896	132,042
2233,679	16,060	208,942	132,120
2234,694	16,195	208,772	132,107
2235,709	16,134	208,561	131,914
2236,723	16,263	208,479	131,951
2237,738	16,195	208,297	131,771
2238,752	16,266	208,070	131,671
2239,767	15,977	207,933	131,348
2240,782	16,064	207,734	131,278
2241,796	16,046	207,465	131,082
2242,811	16,029	207,266	130,932
2243,825	16,127	207,136	130,914
2244,840	16,033	206,937	130,704
2245,855	15,957	206,693	130,479
2246,869	16,078	206,494	130,436
2247,884	16,137	206,321	130,361
2248,898	15,873	206,222	130,083
2249,913	16,075	206,104	130,153
2250,928	16,134	205,975	130,105
2251,942	16,182	205,825	130,036
2252,957	15,871	205,694	129,702
2253,971	15,508	205,673	129,398
2254,986	15,506	205,691	129,397
2256,001	15,900	205,676	129,678
2257,015	16,007	205,658	129,738
2258,030	16,051	205,609	129,730
2259,044	16,004	205,520	129,626
2260,059	15,899	205,427	129,476
2261,074	15,837	205,353	129,369
2262,088	15,569	205,326	129,135
2263,103	15,674	205,308	129,193
2264,117	15,776	205,325	129,270
2265,132	15,885	205,168	129,243
2266,147	15,752	204,996	129,022
2267,161	15,722	204,800	128,865
2268,176	15,653	204,666	128,716
2269,190	15,736	204,696	128,787
2270,205	15,830	204,591	128,781
2271,219	15,738	204,428	128,597
2272,234	15,842	204,243	128,549
2273,249	16,081	204,114	128,638
2274,263	15,982	204,030	128,499
2275,278	15,923	203,801	128,298
2276,292	15,953	203,597	128,181
2277,307	16,002	203,459	128,121
2278,322	15,954	203,274	127,956
2279,336	15,936	203,005	127,761
2280,351	16,147	202,786	127,772
2281,365	15,890	202,642	127,476
2282,380	15,898	202,388	127,311
2283,395	16,036	202,217	127,296
2284,409	16,035	202,120	127,223
2285,424	16,024	202,031	127,147
2286,438	16,023	201,886	127,045
2287,453	16,219	201,761	127,102
2288,468	16,096	201,609	126,902
2289,482	16,087	201,410	126,759
2290,497	16,129	201,299	126,710
2291,511	16,145	201,290	126,705
2292,526	15,972	201,322	126,583
2293,541	16,160	201,283	126,689
2294,555	16,203	201,353	126,754
2295,570	16,236	201,343	126,762
2296,584	16,142	201,291	126,647
2297,599	15,946	201,220	126,444
2298,614	16,048	201,094	126,430
2299,628	15,823	201,090	126,248
2300,643	16,009	201,045	126,348
2301,657	15,889	200,968	126,198
2302,672	15,683	200,901	125,991
2303,687	15,928	200,798	126,099
2304,701	16,029	200,711	126,108
2305,716	15,904	200,553	125,904
2306,730	15,712	200,410	125,660
2307,745	15,784	200,227	125,587
2308,760	15,781	200,088	125,487
2309,774	15,746	199,947	125,362
2310,789	15,823	199,802	125,316
2311,803	15,731	199,621	125,124
2312,818	15,840	199,445	125,083
2313,832	15,897	199,301	125,025
2314,847	15,866	199,067	124,844
2315,862	15,611	198,861	124,514
2316,876	15,543	198,658	124,326
2317,891	15,586	198,529	124,266
2318,905	15,712	198,331	124,224
2319,920	15,865	198,206	124,248
2320,935	15,967	198,064	124,223
2321,949	15,912	197,908	124,074
2322,964	15,947	197,801	124,021
2323,978	15,765	197,661	123,789
2324,993	16,022	197,477	123,851
2326,008	15,900	197,474	123,749
2327,022	15,774	197,439	123,624
2328,037	15,813	197,370	123,598
2329,051	15,874	197,269	123,568
2330,066	15,975	197,157	123,562
2331,081	15,931	197,077	123,468
2332,095	15,812	197,118	123,395
2333,110	15,887	197,166	123,470
2334,124	15,922	197,123	123,458
2335,139	16,069	197,116	123,550
2336,154	15,984	197,044	123,432
2337,168	16,155	196,997	123,516
2338,183	16,101	196,981	123,456
2339,197	16,038	196,943	123,375
2340,212	16,234	196,840	123,443
2341,227	16,237	196,739	123,371
2342,241	16,401	196,629	123,411
2343,256	16,268	196,530	123,241
2344,270	16,191	196,342	123,056
2345,285	16,142	196,243	122,948
2346,300	16,032	195,990	122,698
2347,314	16,199	195,730	122,646
2348,329	16,172	195,598	122,532
2349,343	16,167	195,452	122,427
2350,358	15,960	195,238	122,131
2351,372	16,066	195,070	122,092
2352,387	16,190	194,880	122,053
2353,402	16,061	194,672	121,818
2354,416	16,192	194,527	121,811
2355,431	16,317	194,272	121,731
2356,445	16,353	194,098	121,637
2357,460	16,203	194,046	121,486
2358,475	16,379	193,954	121,544
2359,489	16,208	193,916	121,386
2360,504	16,138	193,831	121,272
2361,518	16,241	193,733	121,275
2362,533	16,291	193,632	121,236
2363,548	16,138	193,531	121,052
2364,562	16,262	193,481	121,100
2365,577	16,305	193,387	121,060
2366,591	16,221	193,290	120,929
2367,606	16,030	193,193	120,721
2368,621	16,098	193,138	120,724
2369,635	16,264	193,039	120,770
2370,650	16,119	193,101	120,694
2371,664	16,137	193,103	120,698
2372,679	16,222	193,036	120,707
2373,694	16,073	193,018	120,578
2374,708	15,945	192,980	120,452
2375,723	16,290	192,876	120,623
2376,737	16,116	192,772	120,423
2377,752	15,951	192,664	120,227
2378,767	15,993	192,601	120,207
2379,781	16,244	192,572	120,357
2380,796	16,160	192,494	120,238
2381,810	16,307	192,364	120,251
2382,825	16,179	192,173	120,030
2383,840	16,204	192,024	119,944
2384,854	16,200	191,854	119,824
2385,869	16,195	191,607	119,656
2386,883	16,326	191,378	119,595
2387,898	16,191	191,198	119,376
2388,912	16,159	190,999	119,219
2389,927	16,185	190,813	119,111
2390,942	16,240	190,669	119,049
2391,956	16,179	190,448	118,858
2392,971	16,053	190,287	118,658
2393,985	16,069	190,185	118,595
2395,000	15,843	190,026	118,326
2396,015	15,841	189,883	118,226
2397,029	16,011	189,851	118,315
2398,044	16,093	189,840	118,355
2399,058	16,298	189,717	118,412
2400,073	16,214	189,788	118,387
2401,088	16,169	189,812	118,360
2402,102	16,147	189,683	118,253
2403,117	16,230	189,632	118,269
2404,131	16,208	189,628	118,241
2405,146	16,345	189,529	118,265
2406,161	16,177	189,448	118,086
2407,175	16,281	189,404	118,120
2408,190	16,500	189,312	118,206
2409,204	16,129	189,372	117,973
2410,219	16,261	189,234	117,969
2411,234	16,338	189,106	117,932
2412,248	16,423	189,004	117,918
2413,263	16,492	188,988	117,946
2414,277	16,330	188,912	117,775
2415,292	16,170	188,764	117,561
2416,307	16,158	188,721	117,515
2417,321	16,350	188,695	117,623
2418,336	16,386	188,538	117,539
2419,350	16,424	188,360	117,444
2420,365	16,447	188,178	117,337
2421,380	16,525	188,082	117,320
2422,394	16,284	187,933	117,050
2423,409	16,322	187,734	116,942
2424,423	16,502	187,566	116,952
2425,438	16,500	187,294	116,770
2426,452	16,318	187,121	116,526
2427,467	16,302	186,964	116,407
2428,482	16,361	186,689	116,266
2429,496	16,643	186,514	116,341
2430,511	16,632	186,388	116,244
2431,525	16,586	186,272	116,130
2432,540	16,312	186,126	115,841
2433,555	16,467	186,031	115,878
2434,569	16,563	186,022	115,928
2435,584	16,754	185,966	116,013
2436,598	16,544	185,883	115,808
2437,613	16,558	185,813	115,763
2438,628	16,637	185,783	115,789
2439,642	16,513	185,767	115,684
2440,657	16,434	185,767	115,619
2441,671	16,556	185,767	115,692
2442,686	16,589	185,733	115,683
2443,701	16,451	185,722	115,572
2444,715	16,638	185,662	115,652
2445,730	16,846	185,615	115,755
2446,744	16,946	185,496	115,739
2447,759	16,941	185,438	115,689
2448,774	16,711	185,424	115,513
2449,788	16,672	185,304	115,401
2450,803	16,896	185,135	115,438
2451,817	17,058	185,048	115,484
2452,832	16,921	184,961	115,327
2453,847	16,819	184,827	115,164
2454,861	16,750	184,713	115,035
2455,876	17,044	184,656	115,189
2456,890	16,864	184,556	114,994
2457,905	16,668	184,411	114,762
2458,920	16,799	184,264	114,748
2459,934	16,851	184,103	114,673
2460,949	17,054	184,022	114,750
2461,963	16,884	183,806	114,490
2462,978	16,778	183,604	114,283
2463,993	16,639	183,428	114,069
2465,007	17,101	183,305	114,293
2466,022	16,897	183,100	114,018
2467,036	16,880	182,911	113,880
2468,051	17,179	182,839	114,025
2469,065	16,902	182,719	113,755
2470,080	17,044	182,512	113,711
2471,095	16,989	182,456	113,629
2472,109	17,094	182,362	113,630
2473,124	17,034	182,288	113,534
2474,138	16,924	182,217	113,407
2475,153	17,121	182,203	113,520
2476,168	16,895	182,216	113,366
2477,182	17,002	182,187	113,410
2478,197	17,096	182,169	113,452
2479,211	17,079	182,196	113,447
2480,226	17,137	182,103	113,418
2481,241	17,206	182,057	113,425
2482,255	17,130	182,074	113,375
2483,270	17,193	182,076	113,408
2484,284	17,303	182,021	113,438
2485,299	17,156	181,932	113,274
2486,314	17,287	181,847	113,298
2487,328	17,222	181,858	113,252
2488,343	17,403	181,730	113,282
2489,357	17,028	181,509	112,885
2490,372	16,447	181,168	112,277
2491,387	16,300	181,022	112,079
2492,401	16,620	180,968	112,248
2493,416	16,828	180,842	112,298
2494,430	16,985	180,884	112,418
2495,445	17,963	180,975	113,113
2496,460	18,927	181,015	113,766
2497,474	19,603	181,053	114,227
2498,489	19,764	180,904	114,230
2499,503	19,874	180,772	114,209
2500,518	20,242	180,643	114,360
2501,533	20,114	180,468	114,154
2502,547	20,045	180,199	113,928
2503,562	19,443	179,870	113,315
2504,576	18,764	179,676	112,737
2505,591	19,016	179,588	112,838
2506,605	19,426	179,485	113,032
2507,620	18,989	179,400	112,682
2508,635	18,961	179,243	112,555
2509,649	18,670	179,108	112,270
2510,664	18,697	178,992	112,205
2511,678	18,576	178,979	112,108
2512,693	18,693	178,878	112,111
2513,708	18,760	178,745	112,061
2514,722	18,755	178,794	112,079
2515,737	18,680	178,912	112,094
2516,751	18,631	178,934	112,066
2517,766	18,841	178,816	112,119
2518,781	18,678	178,744	111,958
2519,795	18,672	178,763	111,956
2520,810	18,540	178,747	111,850
2521,824	18,579	178,648	111,803
2522,839	18,697	178,489	111,771
2523,854	19,421	177,441	111,573
2524,868	19,932	174,795	110,225
2525,883	19,419	172,358	108,356
2526,897	18,915	171,354	107,401
2527,912	18,960	171,097	107,258
2528,927	18,886	170,974	107,126
2529,941	18,940	170,778	107,027
2530,956	18,691	170,624	106,766
2531,970	18,852	170,453	106,750
2532,985	18,872	170,367	106,699
2534,000	18,894	170,265	106,639
2535,014	19,076	170,053	106,610
2536,029	18,537	169,762	106,085
2537,043	17,621	169,427	105,300
2538,058	16,929	169,156	104,695
2539,073	16,727	169,122	104,540
2540,087	16,784	169,103	104,554
2541,102	17,285	169,080	104,840
2542,116	17,858	169,064	105,174
2543,131	18,382	169,019	105,459
2544,145	18,759	168,929	105,626
2545,160	18,739	168,763	105,500
2546,175	18,223	168,531	105,030
2547,189	17,797	168,324	104,630
2548,204	17,647	168,300	104,514
2549,218	18,218	168,275	104,839
2550,233	18,759	168,345	105,205
2551,248	18,906	168,227	105,212
2552,262	19,078	168,105	105,231
2553,277	18,694	167,994	104,918
2554,291	18,592	167,846	104,754
2555,306	18,530	167,829	104,696
2556,321	19,226	167,809	105,099
2557,335	19,552	167,867	105,325
2558,350	20,093	167,896	105,664
2559,364	20,943	167,991	106,233
2560,379	21,692	168,065	106,727
2561,394	22,082	168,015	106,923
2562,408	21,840	167,755	106,601
2563,423	20,827	167,467	105,793
2564,437	19,923	167,089	104,998
2565,452	18,894	166,807	104,187
2566,467	17,989	166,556	103,474
2567,481	17,356	166,318	102,933
2568,496	17,290	166,165	102,789
2569,510	17,254	166,111	102,725
2570,525	17,762	166,144	103,043
2571,540	18,551	166,182	103,534
2572,554	18,514	166,062	103,428
2573,569	17,983	165,824	102,951
2574,583	17,693	165,714	102,699
2575,598	17,357	165,514	102,364
2576,613	17,426	165,401	102,327
2577,627	17,439	165,327	102,280
2578,642	17,286	165,167	102,079
2579,656	17,508	165,107	102,166
2580,671	17,335	165,095	102,046
2581,685	17,258	164,989	101,925
2582,700	17,846	164,912	102,221
2583,715	18,073	164,901	102,341
2584,729	18,398	164,969	102,569
2585,744	18,517	164,812	102,534
2586,758	18,399	164,723	102,398
2587,773	18,352	164,695	102,344
2588,788	18,492	164,499	102,297
2589,802	18,481	164,436	102,242
2590,817	18,488	164,318	102,164
2591,831	18,431	164,213	102,056
2592,846	18,521	164,144	102,057
2593,861	18,480	164,048	101,964
2594,875	18,489	163,925	101,884
2595,890	18,532	163,799	101,822
2596,904	18,740	163,620	101,825
2597,919	18,722	163,237	101,567
2598,934	18,689	162,803	101,268
2599,948	18,452	162,569	100,975
2600,963	18,505	162,453	100,925
2601,977	18,413	162,353	100,800
2602,992	18,352	162,260	100,697
2604,007	18,512	162,118	100,694
2605,021	18,618	162,019	100,685
2606,036	18,436	161,909	100,502
2607,050	18,666	161,807	100,565
2608,065	18,757	161,667	100,522
2609,080	18,807	161,525	100,454
2610,094	18,643	161,463	100,311
2611,109	18,728	161,340	100,275
2612,123	18,738	161,249	100,216
2613,138	18,768	161,234	100,215
2614,153	18,791	161,032	100,094
2615,167	18,776	160,876	99,979
2616,182	18,551	160,746	99,758
2617,196	18,069	160,586	99,370
2618,211	17,859	160,445	99,152
2619,226	17,822	160,477	99,141
2620,240	18,325	160,375	99,362
2621,255	18,408	160,290	99,349
2622,269	18,360	160,137	99,217
2623,284	18,495	160,013	99,210
2624,298	18,333	159,851	99,007
2625,313	17,736	159,600	98,498
2626,328	17,377	159,461	98,196
2627,342	16,970	159,346	97,882
2628,357	16,968	159,276	97,829
2629,371	17,662	159,331	98,254
2630,386	18,211	159,251	98,513
2631,401	18,394	159,176	98,563
2632,415	18,236	159,126	98,432
2633,430	17,898	158,968	98,131
2634,444	18,059	158,860	98,148
2635,459	18,154	158,786	98,149
2636,474	18,062	158,746	98,062
2637,488	17,951	158,622	97,913
2638,503	18,290	158,489	98,016
2639,517	18,039	158,335	97,770
2640,532	18,055	158,232	97,706
2641,547	18,259	158,208	97,800
2642,561	18,371	158,116	97,798
2643,576	18,309	158,102	97,745
2644,590	18,402	157,984	97,717
2645,605	18,296	157,914	97,604
2646,620	18,225	157,802	97,486
2647,634	18,369	157,707	97,501
2648,649	18,318	157,558	97,371
2649,663	17,841	157,373	96,977
2650,678	17,977	157,310	97,007
2651,693	17,741	157,298	96,857
2652,707	17,768	157,164	96,781
2653,722	17,917	157,111	96,824
2654,736	18,133	156,948	96,838
2655,751	17,852	156,792	96,574
2656,766	17,705	156,722	96,440
2657,780	17,568	156,718	96,351
2658,795	17,502	156,634	96,253
2659,809	17,701	156,538	96,298
2660,824	17,768	156,392	96,237
2661,838	17,370	156,203	95,889
2662,853	17,301	156,182	95,828
2663,868	17,420	156,082	95,825
2664,882	17,387	156,066	95,788
2665,897	17,571	155,940	95,806
2666,911	17,460	155,825	95,664
2667,926	17,579	155,795	95,705
2668,941	17,664	155,714	95,694
2669,955	17,668	155,550	95,587
2670,970	17,307	155,442	95,310
2671,984	17,268	155,394	95,250
2672,999	17,332	155,337	95,242
2674,014	17,478	155,174	95,216
2675,028	17,364	155,070	95,080
2676,043	17,072	154,978	94,852
2677,057	17,026	154,808	94,714
2678,072	16,971	154,757	94,644
2679,087	17,050	154,649	94,613
2680,101	17,145	154,532	94,586
2681,116	17,225	154,524	94,617
2682,130	17,208	154,498	94,584
2683,145	17,338	154,365	94,566
2684,160	17,016	154,226	94,294
2685,174	17,141	154,163	94,316
2686,189	17,008	154,117	94,206
2687,203	17,405	153,916	94,295
2688,218	17,177	153,808	94,094
2689,233	17,192	153,740	94,052
2690,247	17,161	153,549	93,910
2691,262	17,333	153,571	94,010
2692,276	17,312	153,554	93,980
2693,291	17,318	153,445	93,909
2694,306	17,145	153,290	93,709
2695,320	16,904	153,210	93,519
2696,335	17,007	153,095	93,498
2697,349	17,203	153,014	93,548
2698,364	17,163	152,897	93,446
2699,378	17,031	152,870	93,349
2700,393	17,095	152,842	93,359
2701,408	17,244	152,719	93,357
2702,422	17,101	152,588	93,190
2703,437	16,788	152,417	92,906
2704,451	16,810	152,410	92,905
2705,466	17,157	152,333	93,040
2706,481	17,172	152,237	92,982
2707,495	17,198	152,137	92,927
2708,510	17,189	152,107	92,895
2709,524	17,020	152,020	92,741
2710,539	17,153	151,857	92,707
2711,554	17,035	151,819	92,611
2712,568	17,060	151,720	92,556
2713,583	17,152	151,677	92,571
2714,597	16,991	151,579	92,416
2715,612	16,772	151,485	92,231
2716,627	16,852	151,355	92,188
2717,641	16,495	151,181	91,879
2718,656	16,951	151,088	92,062
2719,670	16,947	151,106	92,063
2720,685	17,304	151,037	92,206
2721,700	17,138	150,859	91,999
2722,714	16,922	150,817	91,849
2723,729	16,976	150,698	91,797
2724,743	16,938	150,633	91,729
2725,758	16,972	150,543	91,685
2726,773	17,037	150,444	91,651
2727,787	17,123	150,399	91,662
2728,802	17,116	150,314	91,598
2729,816	17,267	150,177	91,589
2730,831	17,085	150,007	91,379
2731,846	16,860	149,878	91,171
2732,860	17,071	149,885	91,280
2733,875	17,279	149,826	91,348
2734,889	17,194	149,825	91,294
2735,904	17,043	149,689	91,122
2736,919	16,873	149,525	90,923
2737,933	16,644	149,481	90,766
2738,948	16,798	149,386	90,782
2739,962	16,897	149,185	90,705
2740,977	16,693	149,104	90,539
2741,991	16,697	149,024	90,484
2743,006	16,400	148,863	90,220
2744,021	16,721	148,735	90,305
2745,035	16,467	148,728	90,158
2746,050	16,416	148,678	90,093
2747,064	16,725	148,616	90,212
2748,079	16,793	148,485	90,160
2749,094	16,692	148,356	90,020
2750,108	16,483	148,222	89,820
2751,123	16,277	148,207	89,694
2752,137	16,514	148,175	89,791
2753,152	16,341	148,077	89,633
2754,167	16,335	147,948	89,543
2755,181	16,447	147,915	89,575
2756,196	16,518	147,859	89,571
2757,210	16,569	147,787	89,546
2758,225	16,530	147,708	89,470
2759,240	16,524	147,641	89,418
2760,254	16,452	147,437	89,248
2761,269	16,406	147,404	89,196
2762,283	16,361	147,339	89,125
2763,298	16,369	147,281	89,087
2764,313	16,214	147,204	88,951
2765,327	16,217	147,100	88,881
2766,342	16,189	147,037	88,821
2767,356	16,674	146,917	88,995
2768,371	16,713	146,877	88,984
2769,386	16,320	146,739	88,686
2770,400	16,323	146,613	88,603
2771,415	16,286	146,569	88,550
2772,429	16,372	146,492	88,540
2773,444	16,240	146,380	88,396
2774,459	16,255	146,267	88,327
2775,473	16,595	146,157	88,431
2776,488	16,537	146,146	88,386
2777,502	16,513	146,090	88,332
2778,517	16,397	145,964	88,188
2779,531	16,648	145,860	88,248
2780,546	16,603	145,774	88,165
2781,561	16,282	145,701	87,945
2782,575	16,333	145,667	87,943
2783,590	16,468	145,534	87,925
2784,604	16,284	145,484	87,792
2785,619	16,614	145,374	87,889
2786,634	16,553	145,240	87,768
2787,648	16,412	145,224	87,678
2788,663	16,279	145,110	87,533
2789,677	16,466	144,966	87,535
2790,692	16,611	144,934	87,583
2791,707	16,549	144,802	87,463
2792,721	16,568	144,772	87,448
2793,736	16,646	144,748	87,466
2794,750	16,665	144,714	87,447
2795,765	16,766	144,600	87,423
2796,780	16,799	144,575	87,417
2797,794	16,675	144,460	87,276
2798,809	17,029	144,390	87,408
2799,823	17,057	144,297	87,358
2800,838	16,922	144,263	87,260
2801,853	16,660	144,223	87,094
2802,867	16,752	144,047	87,027
2803,882	16,805	143,925	86,972
2804,896	16,586	143,886	86,829
2805,911	16,506	143,792	86,724
2806,926	16,800	143,767	86,852
2807,940	16,908	143,676	86,844
2808,955	16,857	143,564	86,743
2809,969	16,975	143,464	86,735
2810,984	17,210	143,408	86,814
2811,999	16,962	143,421	86,687
2813,013	17,041	143,282	86,636
2814,028	16,971	143,176	86,528
2815,042	16,807	143,122	86,405
2816,057	16,903	143,054	86,404
2817,071	16,842	142,999	86,333
2818,086	16,937	142,872	86,297
2819,101	16,900	142,817	86,237
2820,115	16,795	142,655	86,078
2821,130	16,791	142,642	86,060
2822,144	16,774	142,527	85,975
2823,159	16,837	142,469	85,964
2824,174	16,614	142,324	85,757
2825,188	16,649	142,174	85,676
2826,203	16,858	142,158	85,765
2827,217	16,827	142,138	85,729
2828,232	16,418	142,073	85,476
2829,247	16,492	142,008	85,467
2830,261	16,547	141,970	85,464
2831,276	16,769	141,833	85,486
2832,290	16,761	141,675	85,379
2833,305	16,822	141,622	85,370
2834,320	16,866	141,587	85,364
2835,334	17,008	141,520	85,387
2836,349	16,989	141,346	85,266
2837,363	16,917	141,216	85,143
2838,378	16,875	141,197	85,103
2839,393	16,894	141,172	85,090
2840,407	16,891	141,033	84,997
2841,422	16,868	140,963	84,936
2842,436	16,930	140,869	84,903
2843,451	16,555	140,737	84,629
2844,466	16,725	140,611	84,630
2845,480	16,663	140,555	84,558
2846,495	16,717	140,439	84,507
2847,509	16,692	140,378	84,451
2848,524	16,658	140,287	84,372
2849,539	16,583	140,284	84,325
2850,553	16,838	140,140	84,358
2851,568	16,775	140,097	84,293
2852,582	16,273	139,933	83,938
2853,597	16,516	139,843	83,997
2854,611	16,427	139,742	83,884
2855,626	16,489	139,688	83,875
2856,641	16,605	139,567	83,853
2857,655	16,729	139,639	83,950
2858,670	16,741	139,533	83,885
2859,684	16,659	139,466	83,796
2860,699	16,863	139,375	83,835
2861,714	17,176	139,294	83,934
2862,728	17,131	139,252	83,879
2863,743	17,002	139,147	83,745
2864,757	16,949	139,106	83,686
2865,772	17,028	138,950	83,624
2866,787	17,215	138,836	83,640
2867,801	17,222	138,806	83,618
2868,816	17,053	138,823	83,538
2869,830	17,120	138,715	83,499
2870,845	17,158	138,503	83,382
2871,860	16,997	138,490	83,288
2872,874	16,952	138,468	83,245
2873,889	17,102	138,354	83,243
2874,903	16,734	138,264	83,001
2875,918	17,136	138,080	83,080
2876,933	16,998	138,022	82,970
2877,947	16,867	137,971	82,868
2878,962	16,736	137,982	82,803
2879,976	16,635	137,798	82,636
2880,991	16,687	137,636	82,557
2882,006	16,756	137,632	82,581
2883,020	16,587	137,582	82,462
2884,035	16,799	137,553	82,540
2885,049	16,865	137,474	82,517
2886,064	16,987	137,403	82,527
2887,079	16,899	137,370	82,457
2888,093	17,137	137,263	82,501
2889,108	17,021	137,189	82,393
2890,122	16,907	137,085	82,268
2891,137	17,204	137,029	82,371
2892,152	17,174	136,982	82,321
2893,166	17,191	136,835	82,234
2894,181	16,975	136,816	82,110
2895,195	16,877	136,760	82,022
2896,210	16,862	136,618	81,922
2897,224	16,887	136,540	81,880
2898,239	17,003	136,463	81,883
2899,254	16,939	136,379	81,794
2900,268	16,790	136,298	81,667
2901,283	16,846	136,169	81,610
2902,297	16,746	136,103	81,515
2903,312	16,762	135,994	81,449
2904,327	16,863	135,965	81,474
2905,341	17,066	135,879	81,512
2906,356	17,282	135,850	81,591
2907,370	17,148	135,718	81,441
2908,385	17,001	135,683	81,342
2909,400	16,777	135,495	81,114
2910,414	16,875	135,453	81,129
2911,429	16,607	135,375	80,947
2912,443	16,957	135,321	81,075
2913,458	16,788	135,157	80,889
2914,473	16,740	135,117	80,835
2915,487	16,364	135,031	80,597
2916,502	16,652	134,998	80,707
2917,516	16,407	134,848	80,494
2918,531	16,412	134,766	80,440
2919,546	16,414	134,767	80,435
2920,560	16,560	134,694	80,453
2921,575	16,724	134,664	80,507
2922,589	16,572	134,558	80,364
2923,604	16,706	134,362	80,303
2924,619	16,930	134,342	80,390
2925,633	16,435	134,358	80,158
2926,648	16,794	134,176	80,212
2927,662	16,495	134,107	80,022
2928,677	16,520	134,114	80,031
2929,692	16,333	134,004	79,871
2930,706	16,516	133,821	79,840
2931,721	16,540	133,890	79,886
2932,735	16,845	133,759	79,945
2933,750	16,609	133,642	79,757
2934,764	16,474	133,594	79,657
2935,779	16,738	133,549	79,748
2936,794	16,439	133,440	79,535
2937,808	16,552	133,382	79,546
2938,823	16,743	133,254	79,553
2939,837	16,742	133,167	79,493
2940,852	16,653	133,159	79,439
2941,867	16,828	133,060	79,456
2942,881	16,674	132,969	79,322
2943,896	16,655	132,906	79,269
2944,910	16,478	132,895	79,172
2945,925	16,554	132,724	79,098
2946,940	16,658	132,688	79,119
2947,954	16,933	132,572	79,171
2948,969	16,794	132,595	79,113
2949,983	16,717	132,501	79,014
2950,998	16,619	132,492	78,955
2952,013	16,941	132,371	79,027
2953,027	16,798	132,256	78,885
2954,042	16,891	132,135	78,849
2955,056	16,669	132,069	78,699
2956,071	16,786	131,930	78,664
2957,086	16,930	131,996	78,763
2958,100	16,533	131,861	78,492
2959,115	16,571	131,704	78,408
2960,129	16,496	131,805	78,427
2961,144	16,869	131,702	78,531
2962,159	16,830	131,612	78,453
2963,173	16,964	131,499	78,440
2964,188	16,860	131,423	78,340
2965,202	17,363	131,370	78,533
2966,217	17,641	131,329	78,630
2967,232	17,315	131,304	78,458
2968,246	17,047	131,261	78,302
2969,261	17,033	131,023	78,147
2970,275	16,816	130,976	78,012
2971,290	17,185	130,960	78,165
2972,304	17,234	130,986	78,197
2973,319	17,176	130,878	78,099
2974,334	17,134	130,828	78,042
2975,348	17,219	130,721	78,011
2976,363	17,313	130,576	77,960
2977,377	16,956	130,490	77,738
2978,392	17,110	130,399	77,748
2979,407	17,013	130,453	77,729
2980,421	17,549	130,313	77,883
2981,436	17,702	130,218	77,890
2982,450	17,320	130,091	77,633
2983,465	16,955	130,022	77,418
2984,480	16,977	129,979	77,396
2985,494	17,305	129,947	77,519
2986,509	17,169	129,883	77,412
2987,523	17,108	129,946	77,415
2988,538	17,423	129,709	77,410
2989,553	16,970	129,648	77,161
2990,567	17,185	129,585	77,215
2991,582	17,404	129,526	77,272
2992,596	17,122	129,552	77,153
2993,611	17,420	129,336	77,153
2994,626	17,446	129,281	77,124
2995,640	17,351	129,185	77,017
2996,655	16,972	129,175	76,833
2997,669	17,144	129,018	76,810
2998,684	17,379	128,898	76,838
2999,699	17,433	128,831	76,816
3000,713	17,106	128,855	76,676
3001,728	17,002	128,828	76,606
3002,742	17,017	128,790	76,583
3003,757	17,519	128,606	76,694
3004,772	17,321	128,502	76,535
3005,786	17,074	128,437	76,379
3006,801	17,353	128,369	76,458
3007,815	17,485	128,323	76,482
3008,830	17,658	128,245	76,507
3009,845	17,592	128,205	76,447
3010,859	17,242	128,183	76,270
3011,874	17,401	128,051	76,255
3012,888	17,399	127,965	76,197
3013,903	17,579	127,958	76,267
3014,917	16,936	127,901	75,938
3015,932	17,101	127,770	75,927
3016,947	17,151	127,695	75,898
3017,961	17,396	127,721	76,016
3018,976	17,546	127,603	76,006
3019,990	17,552	127,440	75,905
3021,005	17,416	127,385	75,805
3022,020	17,375	127,343	75,756
3023,034	17,414	127,206	75,685
3024,049	17,428	127,127	75,637
3025,063	17,410	127,102	75,607
3026,078	17,489	127,126	75,650
3027,093	17,627	127,001	75,630
3028,107	17,598	126,943	75,576
3029,122	17,673	126,772	75,501
3030,136	17,604	126,727	75,437
3031,151	17,590	126,727	75,424
3032,166	17,627	126,697	75,416
3033,180	18,182	126,517	75,547
3034,195	17,691	126,458	75,289
3035,209	17,667	126,373	75,221
3036,224	17,636	126,322	75,170
3037,239	17,420	126,289	75,049
3038,253	17,654	126,232	75,112
3039,268	17,573	126,205	75,053
3040,282	17,923	126,067	75,118
3041,297	17,812	125,974	75,007
3042,312	17,814	125,883	74,947
3043,326	17,720	125,915	74,918
3044,341	17,820	125,776	74,873
3045,355	17,797	125,698	74,810
3046,370	17,982	125,584	74,816
3047,385	17,966	125,586	74,804
3048,399	17,941	125,595	74,792
3049,414	18,063	125,416	74,732
3050,428	18,105	125,340	74,698
3051,443	17,975	125,276	74,596
3052,457	18,175	125,262	74,669
3053,472	18,276	125,268	74,710
3054,487	18,396	125,103	74,658
3055,501	18,118	125,172	74,570
3056,516	18,386	124,957	74,553
3057,530	18,565	124,914	74,598
3058,545	18,503	124,898	74,555
3059,560	18,367	124,834	74,451
3060,574	18,453	124,799	74,461
3061,589	18,797	124,663	74,523
3062,603	18,368	124,675	74,337
3063,618	18,405	124,543	74,268
3064,633	18,318	124,458	74,173
3065,647	18,271	124,475	74,156
3066,662	18,415	124,379	74,155
3067,676	18,492	124,251	74,105
3068,691	18,514	124,168	74,059
3069,706	18,753	124,069	74,096
3070,720	18,559	124,030	73,983
3071,735	18,226	123,900	73,755
3072,749	17,434	123,693	73,285
3073,764	17,137	123,715	73,163
3074,779	17,602	123,664	73,326
3075,793	17,487	123,667	73,272
3076,808	18,570	123,621	73,704
3077,822	18,692	123,623	73,752
3078,837	18,673	123,572	73,707
3079,852	18,642	123,563	73,681
3080,866	18,800	123,433	73,665
3081,881	18,320	123,382	73,422
3082,895	18,213	123,228	73,278
3083,910	18,261	123,125	73,231
3084,925	18,670	123,088	73,377
3085,939	18,907	123,090	73,473
3086,954	19,410	123,028	73,644
3087,968	19,114	122,974	73,479
3088,983	18,838	122,998	73,369
3089,997	19,045	122,849	73,362
3091,012	19,018	122,759	73,291
3092,027	19,313	122,568	73,296
3093,041	19,139	122,549	73,204
3094,056	19,042	122,535	73,148
3095,070	19,113	122,457	73,125
3096,085	19,121	122,373	73,071
3097,100	18,848	122,309	72,911
3098,114	18,980	122,248	72,924
3099,129	18,807	122,154	72,788
3100,143	18,997	122,014	72,779
3101,158	18,819	122,058	72,724
3102,173	19,082	121,836	72,696
3103,187	19,133	121,802	72,690
3104,202	19,185	121,698	72,644
3105,216	19,091	121,545	72,507
3106,231	19,102	121,522	72,491
3107,246	18,846	121,498	72,363
3108,260	18,881	121,490	72,366
3109,275	18,856	121,425	72,310
3110,289	18,989	121,378	72,332
3111,304	19,055	121,281	72,296
3112,319	18,988	121,139	72,177
3113,333	18,860	121,004	72,036
3114,348	19,156	120,925	72,107
3115,362	19,497	120,790	72,162
3116,377	19,303	120,747	72,049
3117,392	19,011	120,740	71,916
3118,406	19,198	120,685	71,955
3119,421	19,281	120,577	71,919
3120,435	18,873	120,513	71,705
3121,450	18,735	120,351	71,545
3122,465	18,735	120,256	71,482
3123,479	18,387	120,109	71,243
3124,494	18,078	120,034	71,064
3125,508	17,997	120,028	71,020
3126,523	18,107	119,913	70,992
3127,537	18,417	119,829	71,064
3128,552	18,121	119,759	70,894
3129,567	18,090	119,726	70,855
3130,581	18,205	119,590	70,816
3131,596	17,825	119,480	70,587
3132,610	17,945	119,408	70,589
3133,625	18,237	119,417	70,708
3134,640	18,681	119,601	70,994
3135,654	19,565	119,558	71,328
3136,669	19,916	119,552	71,463
3137,683	19,968	119,466	71,427
3138,698	19,895	119,352	71,322
3139,713	20,384	119,308	71,490
3140,727	20,162	119,319	71,399
3141,742	20,178	119,122	71,282
3142,756	20,250	119,045	71,259
3143,771	20,110	118,903	71,110
3144,786	20,077	118,906	71,093
3145,800	20,155	118,735	71,016
3146,815	19,977	118,835	70,997
3147,829	20,061	118,739	70,967
3148,844	20,213	118,585	70,931
3149,859	20,079	118,602	70,880
3150,873	20,226	118,592	70,929
3151,888	19,340	119,451	71,070
3152,902	18,394	122,938	72,737
3153,917	19,359	126,864	75,476
3154,932	20,601	128,405	76,936
3155,946	20,588	128,591	77,035
3156,961	20,384	128,620	76,955
3157,975	20,470	128,634	76,994
3158,990	20,703	128,701	77,131
3160,005	20,532	128,875	77,152
3161,019	20,519	128,903	77,157
3162,034	20,395	128,910	77,099
3163,048	20,595	128,836	77,137
3164,063	20,684	128,780	77,136
3165,078	20,667	128,726	77,089
3166,092	20,676	128,660	77,047
3167,107	20,409	128,577	76,873
3168,121	20,542	128,536	76,899
3169,136	20,472	128,385	76,772
3170,150	20,743	128,333	76,853
3171,165	20,479	128,216	76,660
3172,180	20,780	128,085	76,708
3173,194	20,536	128,100	76,602
3174,209	20,679	127,955	76,572
3175,223	20,858	127,847	76,579
3176,238	20,613	127,897	76,494
3177,253	20,558	127,878	76,452
3178,267	20,822	127,655	76,428
3179,282	21,064	127,627	76,510
3180,296	21,192	127,533	76,504
3181,311	21,389	127,425	76,518
3182,326	21,467	127,331	76,489
3183,340	21,613	127,333	76,548
3184,355	21,635	127,246	76,498
3185,369	21,770	127,223	76,536
3186,384	21,754	127,182	76,498
3187,399	21,920	127,184	76,565
3188,413	21,812	127,100	76,460
3189,428	21,641	127,047	76,347
3190,442	21,845	126,950	76,371
3191,457	21,537	126,790	76,134
3192,472	21,239	126,671	75,926
3193,486	20,770	126,410	75,560
3194,501	20,683	126,358	75,484
3195,515	20,824	126,202	75,445
3196,530	20,333	126,198	75,223
3197,545	20,249	126,186	75,173
3198,559	20,193	126,130	75,109
3199,574	20,322	125,991	75,075
3200,588	20,501	125,921	75,104
3201,603	20,338	125,865	74,994
3202,618	20,517	125,761	75,002
3203,632	20,589	125,632	74,950
3204,647	20,817	125,566	75,002
3205,661	20,693	125,603	74,964
3206,676	20,854	125,423	74,919
3207,690	20,789	125,280	74,800
3208,705	20,809	125,300	74,813
3209,720	20,670	125,311	74,754
3210,734	21,202	125,304	74,971
3211,749	21,030	125,218	74,839
3212,763	21,010	125,359	74,909
3213,778	21,093	125,230	74,860
3214,793	21,158	125,095	74,801
3215,807	21,253	125,014	74,787
3216,822	21,256	124,956	74,747
3217,836	20,963	124,983	74,631
3218,851	21,142	124,805	74,594
3219,866	23,179	122,908	74,310
3220,880	25,330	117,655	71,991
3221,895	23,471	113,253	68,574
3222,909	22,304	111,826	67,258
3223,924	22,065	111,450	66,935
3224,939	21,815	111,012	66,571
3225,953	21,746	110,803	66,413
3226,968	22,028	110,581	66,381
3227,982	21,790	111,323	66,730
3228,997	4,815	123,461	66,774
3230,012	-4,262	174,143	88,669
3231,026	24,301	179,057	108,838
3232,041	73,986	86,927	67,082
3233,055	140,793	17,008	16,530
3234,070	36,635	6,333	4,113
3235,085	0,125	4,794	2,513
3236,099	-17,015	5,394	2,504
3237,114	31,935	5,543	3,511
3238,128	78,650	1,883	1,480
3239,143	-5,388	0,685	0,346
3240,158	-50,336	0,400	0,139
3241,172	-46,648	0,330	0,119
3242,187	-56,344	0,167	0,055
3243,201	42,665	0,111	0,074
3244,216	800,000	-0,015	0,046
3245,230	-64,639	-0,092	-0,027
3246,245	-18,976	-0,074	0,034
3247,260	343,813	0,047	-0,068
3248,274	7,956	-0,057	-0,031
3249,289	60,746	-0,080	-0,058
