DTS Sentinel unit serial number:	SN413077Multiplexer serial number:	ORYXHardware model number:	OX4-SRSoftware version number:	ORYX F/W v4,00 Oryx Data Collector v3.7.2.0data status	okinstallation	Frescati_0136differential loss correction	single-endedforward channel	channel 1reverse channel	N/Adate	2017/08/01time	02:38:22forward acquisition time	600,00reverse acquisition time	0,00gamma	496,2192k internal	0,2340k external	0,2340temperature offset calibration	1,0000default loss term (dB/km)	0,3790temperature slope calibration	1,0000multiplexer offset coefficient	1,0000multiplexer slope coefficient	1,0000fibre end	0,00T internal ref (°C)	28,44T ext. ref 1 (°C)	-241,90T ext. ref 2 (°C)	-241,90length (m)	temperature (°C)	Stokes	anti-Stokes-747,200	-82,800	0,090	0,029
-746,185	-147,478	-0,147	0,012
-745,171	-143,048	0,055	0,005
-744,156	535,019	-0,099	0,235
-743,142	116,877	0,071	0,087
-742,127	-80,101	-0,219	0,074
-741,112	-35,203	0,049	0,027
-740,098	-131,999	-0,141	0,018
-739,083	32,939	0,133	0,115
-738,069	-169,078	-0,207	0,008
-737,054	-65,606	0,151	0,061
-736,039	-166,172	-0,289	-0,012
-735,025	-37,445	0,233	0,125
-734,010	-43,709	-0,134	-0,068
-732,996	15,814	-0,122	-0,097
-731,981	-200,000	0,006	-0,063
-730,966	-85,899	-0,031	0,009
-729,952	-137,900	-0,041	-0,005
-728,937	-67,902	-0,018	-0,007
-727,923	-4,498	-0,079	-0,055
-726,908	-200,000	-0,019	-0,092
-725,894	-200,000	-0,017	-0,162
-724,879	800,000	-0,029	-0,082
-723,864	-150,483	-0,053	0,004
-722,850	-88,960	-0,105	-0,031
-721,835	800,000	0,021	-0,071
-720,821	-200,000	-0,026	-0,134
-719,806	147,981	-0,064	-0,086
-718,791	800,000	-0,040	-0,124
-717,777	273,664	0,064	-0,114
-716,762	100,744	-0,067	-0,078
-715,748	52,347	-0,077	0,074
-714,733	-40,249	-0,108	-0,056
-713,718	-28,321	-0,016	0,009
-712,704	-121,226	-0,082	0,014
-711,689	114,810	-0,054	-0,066
-710,675	12,417	0,059	0,045
-709,660	-110,778	-0,030	0,006
-708,645	-51,270	-0,037	-0,017
-707,631	800,000	-0,012	-0,048
-706,616	-195,930	0,081	0,001
-705,602	-200,000	0,003	-0,128
-704,587	-53,726	-0,043	0,019
-703,572	-200,000	-0,004	0,048
-702,558	-40,288	-0,052	0,027
-701,543	800,000	-0,007	0,024
-700,529	33,898	-0,037	-0,032
-699,514	-81,363	-0,013	-0,004
-698,499	-110,725	-0,128	-0,026
-697,485	-95,358	0,035	-0,009
-696,470	12,942	-0,108	-0,084
-695,456	-14,921	0,090	0,058
-694,441	-190,100	-0,055	-0,001
-693,426	80,833	0,009	0,010
-692,412	-200,000	-0,005	-0,039
-691,397	-51,557	0,068	-0,032
-690,383	50,233	-0,037	-0,035
-689,368	-200,000	-0,004	0,038
-688,354	-21,816	-0,083	0,051
-687,339	800,000	0,016	-0,060
-686,324	129,850	-0,057	-0,073
-685,310	800,000	0,006	0,022
-684,295	800,000	-0,003	0,012
-683,281	-118,120	0,041	-0,007
-682,266	800,000	0,005	0,013
-681,251	89,233	-0,046	-0,052
-680,237	-200,000	0,013	-0,114
-679,222	663,084	0,028	-0,073
-678,208	-79,498	-0,080	-0,027
-677,193	-200,000	-0,007	0,038
-676,178	-20,744	0,060	-0,037
-675,164	-200,000	-0,004	-0,099
-674,149	-200,000	-0,008	-0,101
-673,135	76,211	-0,019	-0,020
-672,120	299,722	-0,043	0,079
-671,105	-42,576	-0,010	0,005
-670,091	-90,487	-0,120	0,035
-669,076	-200,000	-0,006	-0,093
-668,062	-107,846	-0,075	-0,016
-667,047	-182,411	0,077	-0,001
-666,032	133,809	-0,026	-0,033
-665,018	-51,108	0,109	0,051
-664,003	-200,000	0,005	-0,125
-662,989	45,975	0,057	-0,053
-661,974	-200,000	0,014	-0,103
-660,959	-200,000	0,003	-0,017
-659,945	-43,771	-0,074	-0,037
-658,930	-84,028	0,033	-0,010
-657,916	800,000	-0,017	-0,067
-656,901	-109,234	0,089	0,019
-655,886	578,574	-0,022	-0,054
-654,872	-93,555	-0,091	-0,025
-653,857	99,347	-0,034	-0,039
-652,843	-46,034	-0,053	-0,026
-651,828	77,338	-0,008	0,008
-650,814	103,732	0,070	-0,082
-649,799	800,000	-0,017	-0,074
-648,784	183,913	0,046	0,067
-647,770	-70,977	-0,040	-0,015
-646,755	-38,897	-0,131	0,069
-645,741	84,319	-0,039	0,043
-644,726	39,401	-0,067	0,060
-643,711	23,089	0,028	0,023
-642,697	109,574	-0,020	0,024
-641,682	-131,293	-0,088	-0,012
-640,668	-16,386	0,045	-0,028
-639,653	-58,035	-0,081	-0,035
-638,638	-160,552	0,006	-0,000
-637,624	-125,866	-0,023	0,003
-636,609	-92,294	-0,079	0,022
-635,595	-61,234	-0,107	0,045
-634,580	58,595	0,064	-0,063
-633,565	-200,000	-0,001	0,017
-632,551	800,000	0,036	0,122
-631,536	-143,292	-0,062	0,006
-630,522	-200,000	0,019	-0,096
-629,507	58,137	0,041	-0,041
-628,492	240,138	0,053	0,089
-627,478	-10,325	0,033	0,022
-626,463	12,204	-0,069	-0,053
-625,449	458,195	0,016	-0,036
-624,434	112,337	-0,040	0,048
-623,419	62,234	-0,053	-0,053
-622,405	-60,948	-0,091	-0,038
-621,390	-186,908	-0,021	-0,000
-620,376	226,422	-0,060	-0,097
-619,361	-19,506	-0,045	0,028
-618,346	-83,370	-0,102	-0,033
-617,332	-200,000	0,015	0,118
-616,317	-24,432	-0,049	0,029
-615,303	-56,099	-0,021	-0,009
-614,288	112,243	0,011	0,014
-613,273	-200,000	-0,002	-0,077
-612,259	-114,618	-0,038	0,007
-611,244	800,000	0,021	0,089
-610,230	77,962	-0,028	-0,029
-609,215	-41,703	-0,115	0,059
-608,201	-68,434	-0,076	0,029
-607,186	641,649	0,015	-0,039
-606,171	-127,977	0,014	-0,002
-605,157	350,107	-0,016	0,031
-604,142	115,305	0,075	-0,091
-603,128	-4,186	0,019	0,013
-602,113	-130,606	0,045	-0,006
-601,098	-19,679	0,061	-0,038
-600,084	417,948	-0,031	0,067
-599,069	-188,072	-0,031	-0,000
-598,055	-74,531	-0,034	0,012
-597,040	-153,903	0,064	-0,004
-596,025	323,083	0,037	0,070
-595,011	-129,048	0,044	-0,006
-593,996	-0,894	0,043	-0,031
-592,982	-71,557	0,043	0,016
-591,967	15,785	0,046	-0,036
-590,952	-40,422	-0,029	-0,015
-589,938	-200,000	0,016	0,111
-588,923	142,080	-0,043	-0,057
-587,909	443,444	0,008	-0,016
-586,894	-111,729	0,087	0,018
-585,879	-113,326	-0,020	0,004
-584,865	-68,345	-0,019	-0,007
-583,850	-95,832	0,093	-0,025
-582,836	87,978	0,037	-0,041
-581,821	800,000	-0,036	-0,110
-580,806	-101,919	-0,070	0,017
-579,792	20,202	0,065	0,052
-578,777	128,092	-0,071	0,090
-577,763	36,573	0,121	0,107
-576,748	-59,714	-0,120	0,051
-575,733	-66,294	-0,034	0,013
-574,719	-75,795	-0,058	-0,021
-573,704	-200,000	0,002	0,029
-572,690	-200,000	-0,004	0,130
-571,675	-20,826	0,095	-0,058
-570,661	139,975	0,060	-0,079
-569,646	-196,928	0,079	0,001
-568,631	-50,071	-0,008	0,004
-567,617	-200,000	-0,004	0,048
-566,602	102,551	0,019	0,022
-565,588	800,000	0,017	0,047
-564,573	-31,888	0,027	0,015
-563,558	140,666	0,035	-0,046
-562,544	-17,714	-0,070	0,044
-561,529	-24,665	0,033	-0,020
-560,515	-116,020	-0,070	-0,013
-559,500	289,777	-0,032	-0,058
-558,485	-200,000	-0,003	0,018
-557,471	-136,351	-0,067	0,008
-556,456	-178,540	0,034	0,001
-555,442	-168,766	0,017	0,001
-554,427	254,141	-0,068	-0,116
-553,412	231,100	-0,049	-0,080
-552,398	-200,000	-0,004	-0,054
-551,383	-10,723	0,044	-0,029
-550,369	-93,218	0,090	0,025
-549,354	433,409	-0,045	-0,096
-548,339	-96,455	0,052	0,014
-547,325	-200,000	-0,005	0,101
-546,310	78,314	-0,024	-0,025
-545,296	-47,717	0,060	0,029
-544,281	-77,286	-0,051	-0,018
-543,266	543,391	-0,039	0,092
-542,252	724,973	0,031	-0,082
-541,237	583,810	0,018	-0,044
-540,223	-200,000	0,005	0,042
-539,208	-200,000	0,008	-0,058
-538,193	90,429	-0,093	-0,104
-537,179	196,815	-0,030	0,046
-536,164	800,000	0,014	-0,041
-535,150	139,109	-0,047	-0,061
-534,135	-138,068	0,075	0,008
-533,121	-69,036	-0,048	-0,018
-532,106	436,609	-0,018	-0,038
-531,091	31,410	-0,029	0,025
-530,077	294,049	-0,023	-0,041
-529,062	56,167	-0,072	0,069
-528,048	322,900	0,028	-0,054
-527,033	282,614	0,058	0,103
-526,018	342,430	0,015	-0,030
-525,004	31,867	0,032	-0,027
-523,989	-147,798	-0,041	-0,003
-522,975	31,118	-0,062	0,053
-521,960	238,648	0,019	-0,031
-520,945	-87,475	0,060	0,018
-519,931	548,339	0,038	-0,090
-518,916	-128,834	0,034	-0,005
-517,902	-200,000	0,004	0,067
-516,887	-36,234	-0,047	-0,025
-515,872	-171,593	-0,094	-0,003
-514,858	-55,616	-0,046	-0,021
-513,843	-200,000	-0,016	0,094
-512,829	-137,489	-0,054	0,006
-511,814	717,192	0,017	0,044
-510,799	639,270	-0,034	-0,086
-509,785	-95,823	-0,033	0,009
-508,770	2,704	-0,062	0,045
-507,756	542,302	0,050	-0,118
-506,741	-96,530	0,104	0,027
-505,726	-34,258	0,021	0,011
-504,712	-119,378	-0,068	0,012
-503,697	-3,909	0,071	0,049
-502,683	228,423	0,014	0,023
-501,668	11,768	-0,026	-0,020
-500,653	-123,935	0,048	0,007
-499,639	-200,000	0,002	-0,055
-498,624	-17,349	0,073	0,045
-497,610	116,244	-0,018	0,022
-496,595	-200,000	0,004	0,021
-495,581	800,000	0,015	0,058
-494,566	386,454	-0,029	-0,059
-493,551	657,503	-0,030	0,075
-492,537	64,020	0,062	-0,062
-491,522	-86,016	0,021	-0,006
-490,508	20,753	0,064	0,051
-489,493	-116,146	0,063	-0,012
-488,478	286,144	-0,056	-0,101
-487,464	489,652	-0,037	-0,084
-486,449	-76,629	0,040	-0,014
-485,435	52,617	-0,028	0,026
-484,420	-122,390	0,155	0,025
-483,405	215,704	0,015	0,024
-482,391	-65,161	-0,077	-0,031
-481,376	-81,309	0,031	0,010
-480,362	180,288	-0,050	-0,072
-479,347	35,193	-0,021	-0,018
-478,332	-136,542	0,061	0,007
-477,318	800,000	-0,016	0,050
-476,303	-12,580	-0,043	0,028
-475,289	-178,822	0,049	0,001
-474,274	-200,000	0,002	0,059
-473,259	-65,374	0,077	0,031
-472,245	0,103	-0,076	-0,054
-471,230	37,315	0,057	-0,050
-470,216	122,357	0,048	-0,059
-469,201	463,121	0,016	0,036
-468,186	-4,558	0,094	0,064
-467,172	251,069	-0,005	-0,009
-466,157	-130,512	-0,046	-0,006
-465,143	-200,000	0,004	0,027
-464,128	800,000	-0,008	-0,024
-463,113	800,000	0,021	0,089
-462,099	-190,392	0,042	-0,000
-461,084	-26,053	0,115	0,067
-460,070	-41,062	-0,083	0,043
-459,055	155,017	-0,018	-0,024
-458,040	-200,000	0,002	0,056
-457,026	-200,000	-0,009	-0,063
-456,011	800,000	-0,009	-0,039
-454,997	89,231	-0,028	0,031
-453,982	-150,007	0,086	0,007
-452,968	325,194	-0,032	0,061
-451,953	-63,973	-0,031	0,012
-450,938	-200,000	0,007	-0,086
-449,924	-200,000	-0,001	-0,047
-448,909	50,602	-0,049	-0,046
-447,895	800,000	-0,019	0,071
-446,880	121,102	-0,028	0,035
-445,865	-139,619	-0,052	0,005
-444,851	-49,148	-0,073	-0,034
-443,836	-133,368	0,069	-0,009
-442,822	-140,573	-0,075	0,008
-441,807	151,912	0,008	0,011
-440,792	800,000	-0,020	0,059
-439,778	119,331	0,027	-0,033
-438,763	391,667	0,053	-0,108
-437,749	162,624	-0,043	0,060
-436,734	-162,884	-0,044	-0,002
-435,719	-151,268	0,050	-0,004
-434,705	-36,483	0,042	-0,023
-433,690	800,000	0,030	-0,085
-432,676	-71,330	-0,064	-0,024
-431,661	-196,748	-0,046	0,000
-430,646	-40,987	-0,039	-0,020
-429,632	-177,694	-0,053	0,001
-428,617	69,603	0,086	0,088
-427,603	-0,266	-0,063	-0,044
-426,588	156,146	0,049	-0,067
-425,573	-116,411	0,105	0,019
-424,559	800,000	0,026	0,077
-423,544	630,611	0,020	0,050
-422,530	-54,544	-0,019	0,008
-421,515	-200,000	0,001	-0,024
-420,500	-136,940	-0,065	-0,007
-419,486	251,127	-0,024	-0,041
-418,471	91,698	-0,073	0,081
-417,457	-163,900	-0,037	0,002
-416,442	-14,093	0,035	0,022
-415,428	316,195	0,025	-0,047
-414,413	-58,597	-0,051	-0,022
-413,398	-200,000	-0,001	-0,056
-412,384	-79,399	0,020	0,007
-411,369	69,407	-0,072	-0,073
-410,355	-30,223	0,069	0,039
-409,340	-79,890	0,126	-0,042
-408,325	800,000	0,025	0,073
-407,311	799,027	0,018	-0,048
-406,296	-120,433	-0,061	0,010
-405,282	46,981	-0,120	0,110
-404,267	-125,080	-0,093	-0,014
-403,252	307,229	0,056	-0,104
-402,238	55,701	0,027	-0,026
-401,223	592,311	-0,017	-0,041
-400,209	-170,648	0,046	-0,002
-399,194	347,558	0,011	-0,021
-398,179	-200,000	0,008	0,050
-397,165	-200,000	0,003	0,019
-396,150	-24,478	-0,013	0,008
-395,136	-200,000	0,002	-0,016
-394,121	-200,000	-0,014	0,092
-393,106	-81,432	-0,086	0,028
-392,092	111,492	-0,035	0,042
-391,077	-121,099	-0,098	0,016
-390,063	84,845	-0,052	0,057
-389,048	-200,000	0,020	-0,100
-388,033	218,008	-0,005	-0,008
-387,019	338,077	-0,052	0,100
-386,004	231,989	0,034	0,056
-384,990	308,556	-0,028	0,051
-383,975	-200,000	0,002	0,063
-382,960	-200,000	-0,004	0,065
-381,946	-130,253	-0,030	0,004
-380,931	800,000	-0,009	0,029
-379,917	800,000	-0,023	-0,088
-378,902	-200,000	0,008	-0,076
-377,888	91,868	0,024	-0,027
-376,873	225,355	0,069	0,111
-375,858	38,299	0,039	-0,034
-374,844	-54,134	0,039	0,017
-373,829	22,857	0,074	0,060
-372,815	-85,413	0,150	-0,046
-371,800	-19,948	-0,015	-0,009
-370,785	-200,000	-0,004	-0,102
-369,771	-200,000	0,002	0,013
-368,756	-6,614	0,024	0,016
-367,742	-51,049	0,039	0,018
-366,727	-36,050	0,040	0,022
-365,712	215,485	0,044	-0,069
-364,698	239,567	0,021	-0,034
-363,683	-95,144	0,095	-0,025
-362,669	-191,248	-0,119	-0,001
-361,654	800,000	-0,015	-0,043
-360,639	366,926	0,039	0,077
-359,625	-50,489	0,073	0,034
-358,610	-143,615	0,028	0,003
-357,596	343,222	-0,020	-0,038
-356,581	-93,080	0,027	0,007
-355,566	-121,331	0,047	-0,008
-354,552	245,379	0,007	-0,012
-353,537	-200,000	-0,008	-0,057
-352,523	361,007	-0,022	-0,044
-351,508	-141,716	0,165	-0,016
-350,493	-101,562	-0,075	-0,018
-349,479	-58,256	0,027	-0,011
-348,464	-126,180	-0,045	-0,007
-347,450	24,041	-0,056	0,045
-346,435	445,408	0,039	0,085
-345,420	800,000	0,032	0,102
-344,406	44,468	0,063	0,057
-343,391	-98,298	-0,100	-0,025
-342,377	106,358	0,017	0,020
-341,362	800,000	-0,038	-0,114
-340,348	276,089	0,018	0,031
-339,333	-121,425	0,046	-0,008
-338,318	188,281	0,022	-0,032
-337,304	185,019	-0,002	-0,002
-336,289	666,036	-0,029	-0,073
-335,275	2,433	-0,070	0,050
-334,260	1,759	-0,134	-0,095
-333,245	458,284	-0,021	-0,046
-332,231	-193,340	0,140	-0,001
-331,216	-26,889	0,069	0,040
-330,202	-118,762	0,018	-0,003
-329,187	-200,000	-0,011	-0,068
-328,172	728,485	-0,021	0,055
-327,158	800,000	-0,004	-0,011
-326,143	532,365	-0,017	0,041
-325,129	21,917	-0,046	0,037
-324,114	-158,291	-0,030	0,002
-323,099	-127,060	-0,080	0,012
-322,085	800,000	0,022	0,062
-321,070	-37,452	-0,084	0,044
-320,056	185,652	-0,037	-0,054
-319,041	-200,000	0,001	-0,022
-318,026	84,969	0,018	0,020
-317,012	8,051	0,026	-0,019
-315,997	-155,075	0,042	-0,003
-314,983	-139,464	0,103	0,011
-313,968	-200,000	-0,001	-0,029
-312,953	800,000	0,044	-0,126
-311,939	-31,174	0,029	-0,016
-310,924	648,903	0,028	-0,071
-309,910	-200,000	-0,008	0,048
-308,895	800,000	0,026	0,104
-307,880	636,364	-0,002	-0,005
-306,866	-200,000	0,003	-0,063
-305,851	101,184	-0,093	0,107
-304,837	0,063	0,062	0,044
-303,822	168,047	0,060	-0,085
-302,807	97,329	0,021	0,024
-301,793	-159,367	0,025	0,001
-300,778	-70,795	0,024	0,009
-299,764	77,022	0,068	0,072
-298,749	-200,000	0,006	0,050
-297,735	-200,000	0,019	0,107
-296,720	-106,503	0,065	0,014
-295,705	-200,000	-0,005	0,089
-294,691	-81,584	0,079	-0,026
-293,676	-200,000	0,009	-0,056
-292,662	-5,559	0,034	0,023
-291,647	800,000	-0,024	-0,081
-290,632	-200,000	-0,006	0,037
-289,618	-76,273	0,126	0,044
-288,603	220,960	0,030	-0,048
-287,589	37,058	0,051	-0,044
-286,574	48,451	0,041	0,038
-285,559	800,000	0,012	0,037
-284,545	183,214	-0,067	-0,098
-283,530	86,582	0,096	0,104
-282,516	800,000	-0,022	0,060
-281,501	-70,870	-0,038	-0,014
-280,486	166,020	-0,031	-0,044
-279,472	288,477	0,061	0,108
-278,457	29,822	0,017	-0,014
-277,443	-1,342	0,019	0,013
-276,428	155,345	-0,030	0,040
-275,413	97,277	-0,042	-0,047
-274,399	-200,000	0,002	-0,061
-273,384	-3,842	0,020	0,014
-272,370	250,307	0,023	-0,039
-271,355	-49,339	-0,045	-0,021
-270,340	371,182	0,051	-0,101
-269,326	-200,000	-0,001	0,066
-268,311	172,300	0,031	-0,043
-267,297	255,065	0,027	-0,045
-266,282	-180,600	0,081	0,002
-265,267	-200,000	0,010	-0,103
-264,253	202,448	0,026	0,040
-263,238	-200,000	-0,024	-0,125
-262,224	7,640	-0,058	-0,043
-261,209	301,378	0,016	-0,029
-260,195	-82,307	0,082	0,026
-259,180	-48,351	0,057	0,027
-258,165	177,703	0,028	0,039
-257,151	5,321	-0,055	-0,040
-256,136	-12,948	0,019	0,012
-255,122	206,211	0,027	0,041
-254,107	-126,634	0,044	0,006
-253,092	142,568	-0,033	-0,043
-252,078	-200,000	0,010	0,063
-251,063	268,962	-0,042	-0,073
-250,049	8,745	-0,078	0,058
-249,034	223,139	-0,014	0,023
-248,019	-83,229	-0,068	-0,021
-247,005	357,927	-0,020	0,039
-245,990	-122,529	0,063	-0,010
-244,976	47,522	0,033	-0,031
-243,961	-159,677	-0,042	0,002
-242,946	103,150	0,047	-0,054
-241,932	98,971	-0,044	0,050
-240,917	93,822	-0,029	-0,032
-239,903	-200,000	0,008	-0,092
-238,888	-129,225	-0,043	0,006
-237,873	-111,699	0,014	0,003
-236,859	800,000	-0,015	-0,049
-235,844	-71,459	-0,055	0,020
-234,830	544,462	-0,046	0,107
-233,815	193,081	0,023	-0,034
-232,800	-86,494	-0,082	-0,025
-231,786	-146,415	0,071	-0,006
-230,771	-120,393	0,121	0,020
-229,757	-200,000	-0,008	-0,052
-228,742	-183,988	-0,070	0,001
-227,727	465,115	-0,024	0,052
-226,713	-60,469	0,019	-0,008
-225,698	24,978	0,092	-0,075
-224,684	-200,000	0,005	0,030
-223,669	786,108	-0,019	0,051
-222,655	10,395	0,020	-0,015
-221,640	454,857	-0,034	0,075
-220,625	42,050	0,022	-0,019
-219,611	82,152	-0,023	-0,024
-218,596	169,698	-0,006	-0,009
-217,582	800,000	0,011	-0,040
-216,567	244,259	-0,037	0,061
-215,552	83,111	0,057	0,060
-214,538	-200,000	0,001	0,034
-213,523	-200,000	-0,001	-0,014
-212,509	213,175	0,060	0,094
-211,494	15,411	-0,026	0,020
-210,479	77,588	-0,010	-0,011
-209,465	-10,300	-0,048	0,031
-208,450	-200,000	-0,007	0,036
-207,436	-200,000	0,012	0,078
-206,421	94,949	-0,045	-0,051
-205,406	-9,208	-0,109	-0,072
-204,392	-200,000	-0,010	-0,056
-203,377	522,693	0,006	-0,013
-202,363	334,250	0,053	-0,100
-201,348	61,778	0,023	0,023
-200,333	300,182	0,006	-0,011
-199,319	-54,052	-0,079	0,035
-198,304	-37,438	-0,038	0,020
-197,290	-200,000	-0,005	-0,094
-196,275	-162,489	-0,065	-0,003
-195,260	26,890	0,061	-0,051
-194,246	213,249	0,013	-0,020
-193,231	201,276	-0,012	0,018
-192,217	-85,308	-0,030	0,009
-191,202	-59,365	-0,025	-0,011
-190,187	-14,708	0,075	-0,047
-189,173	22,920	0,099	0,080
-188,158	294,927	-0,011	0,020
-187,144	-43,933	-0,084	-0,041
-186,129	82,556	0,057	0,061
-185,114	-44,691	-0,084	0,041
-184,100	196,807	-0,056	-0,084
-183,085	369,560	-0,047	0,093
-182,071	-200,000	-0,002	-0,014
-181,056	-200,000	-0,008	-0,051
-180,042	-114,841	-0,094	0,018
-179,027	90,491	-0,072	-0,079
-178,012	-135,306	-0,114	-0,013
-176,998	31,305	0,075	0,063
-175,983	222,271	-0,050	0,078
-174,969	41,872	-0,033	0,030
-173,954	236,209	-0,040	0,064
-172,939	-56,063	0,070	0,031
-171,925	-152,681	-0,081	0,006
-170,910	800,000	0,016	0,054
-169,896	-103,653	0,026	-0,006
-168,881	-200,000	0,016	-0,068
-167,866	-200,000	-0,010	-0,057
-166,852	-200,000	0,001	-0,008
-165,837	-200,000	0,092	0,000
-164,823	-200,000	0,006	0,027
-163,808	14,338	-0,027	-0,020
-162,793	189,220	-0,036	-0,052
-161,779	800,000	-0,017	-0,049
-160,764	18,428	0,090	0,070
-159,750	92,252	0,045	-0,050
-158,735	-142,033	-0,023	-0,002
-157,720	391,695	0,032	0,065
-156,706	-71,306	-0,069	-0,025
-155,691	-200,000	-0,005	0,072
-154,677	-130,942	0,119	-0,016
-153,662	584,928	-0,048	-0,116
-152,647	-200,000	-0,011	-0,113
-151,633	26,871	0,029	0,024
-150,618	-38,575	0,074	-0,038
-149,604	-159,899	0,098	0,005
-148,589	78,668	-0,053	0,056
-147,574	-12,458	-0,090	-0,058
-146,560	241,113	-0,037	-0,061
-145,545	-66,798	-0,030	-0,012
-144,531	144,703	-0,028	-0,036
-143,516	-35,895	0,029	-0,015
-142,502	-146,118	0,069	0,006
-141,487	41,374	-0,056	0,050
-140,472	-178,230	-0,086	0,002
-139,458	-74,215	-0,050	-0,018
-138,443	90,200	0,022	-0,024
-137,429	520,279	-0,029	-0,066
-136,414	89,849	-0,048	-0,053
-135,399	-200,000	0,004	0,039
-134,385	-125,689	0,115	0,017
-133,370	-29,959	-0,125	0,070
-132,356	800,000	-0,038	0,138
-131,341	422,824	0,025	0,052
-130,326	216,347	0,043	-0,067
-129,312	-188,883	0,143	0,002
-128,297	-119,142	0,057	0,010
-127,283	-200,000	0,010	0,052
-126,268	-200,000	0,001	-0,013
-125,253	44,320	-0,023	-0,021
-124,239	566,711	-0,038	-0,089
-123,224	61,050	0,039	0,038
-122,210	267,353	-0,056	-0,095
-121,195	797,359	-0,028	0,075
-120,180	29,791	0,010	-0,008
-119,166	-157,487	-0,095	-0,006
-118,151	-95,155	0,012	0,003
-117,137	800,000	-0,024	-0,068
-116,122	-138,348	0,135	-0,015
-115,107	784,355	0,021	0,056
-114,093	800,000	0,031	-0,088
-113,078	349,344	0,016	-0,030
-112,064	506,094	0,006	0,013
-111,049	-166,445	-0,125	0,005
-110,034	-200,000	-0,009	-0,039
-109,020	-72,412	-0,142	0,051
-108,005	71,240	0,064	-0,064
-106,991	139,045	-0,022	0,028
-105,976	56,365	0,030	0,029
-104,962	800,000	0,013	0,056
-103,947	122,704	-0,016	-0,020
-102,932	-12,657	-0,065	-0,042
-101,918	-49,877	-0,038	0,017
-100,903	-200,000	0,005	0,079
-99,889	-86,477	-0,087	-0,026
-98,874	-42,922	-0,033	0,016
-97,859	120,697	-0,046	0,056
-96,845	-200,000	-0,003	0,014
-95,830	96,985	-0,020	0,022
-94,816	-16,435	0,082	-0,051
-93,801	69,159	-0,078	0,078
-92,786	-41,274	-0,081	0,041
-91,772	127,996	0,039	-0,049
-90,757	124,365	0,021	0,026
-89,743	95,058	-0,072	-0,081
-88,728	-200,000	-0,005	0,075
-87,713	45,111	-0,036	-0,032
-86,699	226,438	0,039	-0,062
-85,684	-200,000	0,001	-0,057
-84,670	-128,924	0,102	-0,014
-83,655	-12,748	0,010	0,006
-82,640	-132,937	-0,024	-0,003
-81,626	-154,405	-0,103	-0,007
-80,611	-200,000	-0,004	0,022
-79,597	287,079	0,059	0,103
-78,582	167,693	0,013	-0,018
-77,567	43,436	0,014	-0,012
-76,553	352,864	-0,023	-0,045
-75,538	40,923	0,078	-0,069
-74,524	138,369	-0,058	-0,074
-73,509	-105,527	-0,053	0,012
-72,494	31,343	0,049	-0,041
-71,480	198,062	0,043	0,065
-70,465	-146,351	-0,062	-0,005
-69,451	800,000	0,035	0,113
-68,436	439,479	0,037	0,079
-67,422	181,458	-0,062	-0,089
-66,407	-200,000	0,000	-0,047
-65,392	123,556	0,076	-0,093
-64,378	-46,692	0,046	0,022
-63,363	-200,000	-0,000	0,023
-62,349	503,427	0,049	0,112
-61,334	28,643	-2,030	-1,677
-60,319	-7,013	2,077	1,377
-59,305	228,328	-3,307	-5,258
-58,290	197,329	3,396	5,058
-57,276	558,919	1,698	4,000
-56,261	640,832	225,230	559,612
-55,246	218,644	2009,081	3132,023
-54,232	136,400	2744,935	3494,177
-53,217	99,166	1979,731	2232,432
-52,203	46,139	1465,639	1324,501
-51,188	35,934	1215,956	1043,854
-50,173	31,175	1171,504	980,720
-49,159	43,752	1263,860	1128,726
-48,144	40,239	1262,006	1107,417
-47,130	30,960	1197,509	1001,218
-46,115	29,613	1178,038	977,777
-45,100	29,167	1171,885	970,281
-44,086	29,004	1169,240	967,197
-43,071	28,928	1167,237	965,099
-42,057	28,844	1165,540	963,218
-41,042	28,728	1163,900	961,218
-40,027	28,682	1162,403	959,705
-39,013	28,609	1161,039	958,160
-37,998	28,578	1159,671	956,831
-36,984	28,563	1158,468	955,723
-35,969	28,531	1156,977	954,289
-34,954	28,512	1155,512	952,944
-33,940	28,488	1154,427	951,884
-32,925	28,493	1153,270	950,917
-31,911	28,487	1151,848	949,678
-30,896	28,491	1150,592	948,623
-29,881	28,496	1149,564	947,764
-28,867	28,480	1148,499	946,765
-27,852	28,477	1147,311	945,736
-26,838	28,455	1146,137	944,619
-25,823	28,493	1145,033	943,867
-24,809	28,466	1143,987	942,827
-23,794	28,440	1142,868	941,734
-22,779	28,443	1142,092	941,074
-21,765	28,456	1141,005	940,204
-20,750	28,442	1139,832	939,130
-19,736	28,410	1138,694	937,991
-18,721	28,400	1137,617	937,015
-17,706	28,434	1136,711	936,409
-16,692	28,463	1135,864	935,821
-15,677	28,428	1135,074	934,955
-14,663	28,400	1134,232	934,080
-13,648	28,409	1133,383	933,389
-12,633	28,407	1132,501	932,614
-11,619	28,335	1131,728	931,576
-10,604	28,347	1130,856	930,882
-9,590	28,349	1130,200	930,315
-8,575	28,375	1129,460	929,799
-7,560	28,324	1128,970	929,105
-6,546	28,309	1128,104	928,274
-5,531	28,293	1127,390	927,569
-4,517	28,257	1126,557	926,664
-3,502	28,296	1125,729	926,148
-2,487	28,286	1124,826	925,318
-1,473	28,288	1123,991	924,604
-0,458	28,328	1122,878	923,852
0,556	28,034	1121,318	922,471
1,571	27,715	1107,265	909,237
2,586	27,485	1007,580	826,267
3,600	23,868	873,563	702,047
4,615	18,784	811,082	633,087
5,629	18,375	802,879	625,133
6,644	18,417	800,441	623,332
7,659	18,625	798,694	622,675
8,673	19,019	795,071	621,215
9,688	18,899	790,455	617,127
10,702	18,590	788,502	614,438
11,717	18,374	786,907	612,370
12,731	18,279	782,898	608,856
13,746	18,139	778,864	605,171
14,761	18,139	777,043	603,704
15,775	18,235	776,112	603,264
16,790	18,293	775,317	602,799
17,804	18,224	774,417	601,802
18,819	18,253	773,562	601,185
19,834	18,239	772,890	600,562
20,848	18,240	772,207	599,981
21,863	18,294	771,510	599,576
22,877	18,250	770,855	598,861
23,892	18,259	770,202	598,331
24,907	18,285	769,594	597,895
25,921	18,284	769,015	597,391
26,936	18,319	768,542	597,093
27,950	18,446	768,084	597,126
28,965	18,415	767,473	596,489
29,980	18,373	766,969	595,902
30,994	18,468	766,526	595,834
32,009	18,551	765,901	595,584
33,023	18,553	765,645	595,338
34,038	18,566	765,144	594,939
35,053	18,599	764,536	594,531
36,067	18,609	764,153	594,214
37,082	18,689	763,709	594,091
38,096	18,706	763,315	593,795
39,111	18,751	762,866	593,547
40,126	18,829	762,308	593,329
41,140	18,879	761,955	593,174
42,155	18,937	761,464	592,940
43,169	18,956	761,066	592,644
44,184	18,934	760,526	592,093
45,199	18,907	760,012	591,547
46,213	18,834	759,526	590,869
47,228	18,833	758,963	590,375
48,242	18,851	758,404	589,950
49,257	18,896	758,102	589,816
50,271	18,938	757,551	589,478
51,286	18,899	756,967	588,838
52,301	18,879	756,601	588,433
53,315	18,789	756,102	587,686
54,330	18,817	755,576	587,321
55,344	18,750	754,956	586,559
56,359	18,543	754,299	585,290
57,374	18,210	753,550	583,521
58,388	18,098	752,813	582,515
59,403	18,065	752,312	581,963
60,417	18,022	751,747	581,330
61,432	18,080	751,176	581,032
62,447	18,297	750,611	581,281
63,461	18,387	750,251	581,258
64,476	18,471	749,913	581,229
65,490	18,642	749,656	581,558
66,505	18,788	749,395	581,798
67,520	18,698	748,828	581,003
68,534	18,688	748,228	580,451
69,549	18,622	747,801	579,846
70,563	18,763	747,370	579,936
71,578	18,825	747,126	579,904
72,593	18,823	746,724	579,536
73,607	18,763	746,276	578,935
74,622	18,842	745,904	578,862
75,636	18,910	745,352	578,611
76,651	18,871	745,132	578,257
77,666	18,887	744,739	577,955
78,680	18,957	744,383	577,861
79,695	19,000	743,761	577,473
80,709	18,904	743,246	576,700
81,724	18,837	742,840	576,108
82,739	18,863	742,348	575,764
83,753	18,942	742,059	575,751
84,768	18,807	741,221	574,599
85,782	18,470	740,401	572,788
86,797	18,199	739,817	571,382
87,812	18,088	739,293	570,554
88,826	18,064	738,851	570,082
89,841	18,066	738,259	569,583
90,855	18,050	737,858	569,170
91,870	18,017	737,318	568,592
92,884	18,010	736,979	568,256
93,899	17,999	736,545	567,834
94,914	17,992	736,062	567,389
95,928	17,983	735,753	567,071
96,943	17,993	735,227	566,648
97,957	17,949	734,710	566,054
98,972	17,947	734,149	565,566
99,987	17,943	733,663	565,126
101,001	17,874	733,187	564,484
102,016	17,895	732,744	564,162
103,030	17,976	732,285	564,025
104,045	17,946	731,755	563,467
105,060	17,887	731,194	562,793
106,074	18,002	731,013	562,983
107,089	18,192	730,547	563,197
108,103	18,315	730,048	563,170
109,118	18,213	729,618	562,454
110,133	18,109	729,302	561,819
111,147	18,193	728,910	561,742
112,162	18,181	728,485	561,324
113,176	18,046	728,048	560,495
114,191	17,998	727,650	559,983
115,206	17,952	727,256	559,478
116,220	17,848	726,680	558,644
117,235	17,773	726,262	558,031
118,249	17,730	725,783	557,472
119,264	17,794	725,255	557,227
120,279	17,790	724,873	556,870
121,293	17,830	724,426	556,606
122,308	17,689	723,905	555,699
123,322	16,926	722,505	552,092
124,337	15,874	721,072	547,530
125,352	15,410	720,261	545,357
126,366	15,405	719,937	545,045
127,381	15,613	719,667	545,469
128,395	16,002	719,543	546,589
129,410	16,092	719,113	546,504
130,424	15,673	718,245	544,442
131,439	15,784	718,129	544,662
132,454	16,447	718,442	547,000
133,468	16,759	718,135	547,727
134,483	16,890	717,744	547,804
135,497	17,068	717,363	548,039
136,512	17,139	716,803	547,792
137,527	17,223	716,154	547,518
138,541	17,216	715,733	547,125
139,556	17,228	715,027	546,575
140,570	17,246	714,568	546,234
141,585	17,199	714,180	545,739
142,600	17,021	713,322	544,463
143,614	16,714	712,631	542,903
144,629	16,289	717,099	544,886
145,643	16,410	726,605	552,459
146,658	16,611	732,202	557,326
147,673	16,654	732,614	557,731
148,687	16,663	732,244	557,429
149,702	16,686	731,678	557,026
150,716	16,563	731,264	556,258
151,731	16,206	730,400	554,377
152,746	15,623	729,525	551,750
153,760	15,804	729,391	552,195
154,775	16,506	729,317	554,393
155,789	16,700	728,858	554,630
156,804	16,561	728,506	553,857
157,819	16,307	727,960	552,562
158,833	15,864	727,234	550,513
159,848	15,639	727,033	549,579
160,862	15,849	727,075	550,247
161,877	15,998	726,902	550,553
162,892	15,643	726,166	548,789
163,906	15,223	725,702	547,021
164,921	15,155	725,389	546,514
165,935	15,268	725,333	546,791
166,950	15,614	725,623	548,089
167,964	16,148	726,328	550,317
168,979	16,475	726,185	551,225
169,994	16,437	725,835	550,789
171,008	16,614	725,406	550,991
172,023	16,951	725,304	551,962
173,037	17,360	725,033	553,035
174,052	17,314	724,410	552,363
175,067	16,858	723,292	549,982
176,081	16,583	722,367	548,338
177,096	16,653	721,858	548,131
178,110	16,781	721,295	548,068
179,125	16,663	720,476	547,017
180,140	16,608	719,598	546,124
181,154	16,526	718,426	544,924
182,169	16,524	717,622	544,256
183,183	16,452	717,012	543,514
184,198	16,340	716,182	542,479
185,213	16,291	715,649	541,871
186,227	16,467	715,402	542,199
187,242	16,731	715,043	542,724
188,256	16,876	714,671	542,859
189,271	16,706	714,114	541,845
190,286	16,483	713,734	540,794
191,300	16,487	713,128	540,300
192,315	16,513	713,029	540,262
193,329	16,663	713,026	540,689
194,344	17,109	713,158	542,166
195,359	17,069	712,876	541,777
196,373	16,659	712,242	539,939
197,388	16,704	712,038	539,879
198,402	16,617	711,939	539,479
199,417	16,313	711,434	538,080
200,432	16,126	711,100	537,183
201,446	16,110	710,850	536,897
202,461	16,053	710,537	536,434
203,475	16,088	710,332	536,342
204,490	16,169	710,291	536,519
205,504	16,058	709,901	535,825
206,519	15,915	709,541	535,053
207,534	15,994	709,290	535,067
208,548	16,160	708,966	535,300
209,563	16,127	708,323	534,663
210,577	16,053	707,847	534,025
211,592	16,119	707,347	533,807
212,607	16,153	706,844	533,487
213,621	16,315	706,390	533,611
214,636	16,439	705,860	533,554
215,650	16,394	705,007	532,720
216,665	16,346	704,394	532,057
217,680	16,490	703,741	531,971
218,694	16,188	702,676	530,172
219,709	15,863	701,423	528,158
220,723	15,838	700,658	527,457
221,738	16,035	699,897	527,454
222,753	15,902	699,328	526,564
223,767	15,736	698,587	525,442
224,782	15,627	698,071	524,665
225,796	15,804	698,018	525,132
226,811	16,132	698,003	526,098
227,826	16,374	697,559	526,470
228,840	15,957	696,807	524,558
229,855	15,633	696,562	523,320
230,869	15,687	696,294	523,238
231,884	15,778	696,365	523,530
232,899	15,876	696,337	523,767
233,913	15,740	696,201	523,196
234,928	15,570	695,868	522,369
235,942	15,699	695,954	522,790
236,957	15,867	696,001	523,301
237,972	15,811	695,815	522,941
238,986	15,807	695,385	522,557
240,001	15,670	695,065	521,846
241,015	15,526	694,529	520,949
242,030	15,500	694,247	520,614
243,045	15,542	693,737	520,316
244,059	15,320	693,284	519,240
245,074	15,190	692,720	518,371
246,088	15,034	692,374	517,584
247,103	15,056	691,947	517,288
248,117	15,021	691,452	516,763
249,132	14,956	690,938	516,132
250,147	14,934	690,405	515,619
251,161	14,982	689,729	515,220
252,176	15,036	689,110	514,876
253,190	14,989	688,557	514,273
254,205	14,954	687,945	513,663
255,220	14,928	687,417	513,142
256,234	14,922	686,770	512,596
257,249	14,940	686,013	512,042
258,263	14,786	685,207	510,922
259,278	14,755	684,167	510,009
260,293	14,770	683,619	509,602
261,307	14,762	683,267	509,269
262,322	14,773	682,668	508,809
263,336	14,760	682,345	508,486
264,351	14,698	681,925	507,938
265,366	14,631	681,599	507,448
266,380	14,632	681,374	507,237
267,395	14,863	681,357	507,883
268,409	15,121	681,550	508,766
269,424	15,155	681,400	508,711
270,439	15,078	681,355	508,398
271,453	15,036	681,333	508,209
272,468	14,999	681,405	508,107
273,482	14,963	681,462	507,993
274,497	14,893	681,244	507,573
275,512	14,909	681,019	507,409
276,526	15,023	680,833	507,573
277,541	15,095	680,593	507,568
278,555	15,156	680,252	507,452
279,570	15,001	679,808	506,606
280,585	15,034	679,465	506,408
281,599	15,192	678,935	506,444
282,614	15,064	678,380	505,599
283,628	14,970	677,804	504,843
284,643	14,866	677,317	504,120
285,657	14,901	676,794	503,793
286,672	14,888	676,398	503,412
287,687	14,968	675,671	503,068
288,701	14,905	675,118	502,422
289,716	15,027	674,488	502,275
290,730	15,150	674,024	502,254
291,745	15,223	673,506	502,043
292,760	15,153	673,016	501,425
293,774	15,051	672,356	500,583
294,789	14,915	671,798	499,716
295,803	14,907	671,245	499,239
296,818	15,017	670,831	499,215
297,833	15,088	670,257	498,955
298,847	15,083	669,774	498,534
299,862	15,133	669,268	498,262
300,876	15,096	669,038	497,938
301,891	15,072	668,779	497,630
302,906	15,031	668,468	497,232
303,920	15,051	668,083	496,962
304,935	14,983	667,951	496,618
305,949	14,918	667,866	496,318
306,964	15,046	667,850	496,641
307,979	15,056	667,631	496,463
308,993	14,950	667,459	495,979
310,008	14,959	667,342	495,874
311,022	15,033	667,400	496,092
312,037	15,044	667,416	496,092
313,052	14,986	667,332	495,814
314,066	15,079	666,945	495,757
315,081	14,982	666,460	495,067
316,095	14,925	665,947	494,474
317,110	14,937	665,594	494,205
318,125	14,868	665,086	493,578
319,139	14,773	664,561	492,865
320,154	14,899	664,018	492,792
321,168	14,958	663,618	492,622
322,183	15,044	663,049	492,410
323,197	15,050	662,469	491,954
324,212	15,049	661,748	491,371
325,227	14,923	660,849	490,291
326,241	14,799	660,336	489,504
327,256	14,737	659,617	488,747
328,270	14,768	659,100	488,410
329,285	14,791	658,535	488,017
330,300	14,726	658,045	487,420
331,314	14,739	657,588	487,076
332,329	14,749	657,069	486,680
333,343	14,681	656,670	486,142
334,358	14,770	656,310	486,092
335,373	14,924	655,932	486,216
336,387	14,981	655,491	486,011
337,402	14,796	654,952	485,031
338,416	14,813	654,521	484,718
339,431	14,700	654,276	484,168
340,446	14,701	654,017	483,937
341,460	14,800	653,958	484,135
342,475	14,884	653,766	484,195
343,489	14,828	653,632	483,890
344,504	14,770	653,241	483,391
345,519	14,744	653,109	483,173
346,533	14,733	653,060	483,063
347,548	14,766	652,854	482,965
348,562	14,783	652,830	482,953
349,577	14,767	652,895	482,910
350,592	14,813	652,804	482,935
351,606	14,763	652,653	482,637
352,621	14,795	652,182	482,336
353,635	14,730	651,818	481,836
354,650	14,743	651,302	481,452
355,665	14,769	650,871	481,166
356,679	14,694	650,309	480,491
357,694	14,627	649,698	479,804
358,708	14,593	649,151	479,259
359,723	14,508	648,482	478,480
360,738	14,475	647,804	477,842
361,752	14,594	647,283	477,756
362,767	14,671	646,466	477,332
363,781	14,589	645,701	476,490
364,796	14,559	644,973	475,825
365,810	14,586	644,443	475,469
366,825	14,672	643,892	475,266
367,840	14,588	643,569	474,747
368,854	14,697	643,044	474,628
369,869	14,592	642,634	473,983
370,883	14,518	642,278	473,470
371,898	14,518	641,906	473,154
372,913	14,610	641,648	473,183
373,927	14,644	641,384	473,041
374,942	14,660	641,243	472,940
375,956	14,666	641,043	472,768
376,971	14,664	640,832	472,565
377,986	14,467	640,589	471,788
379,000	14,534	640,474	471,849
380,015	14,539	640,379	471,753
381,029	14,531	640,338	471,657
382,044	14,466	640,090	471,251
383,059	14,407	639,837	470,855
384,073	14,335	639,514	470,371
385,088	14,301	639,489	470,215
386,102	14,371	639,350	470,271
387,117	14,446	639,157	470,298
388,132	14,553	638,929	470,391
389,146	14,636	638,902	470,565
390,161	14,607	638,758	470,334
391,175	14,534	638,430	469,845
392,190	14,449	637,838	469,130
393,205	14,381	637,160	468,397
394,219	14,329	636,704	467,875
395,234	14,487	636,419	468,067
396,248	14,636	635,893	468,057
397,263	14,530	635,268	467,257
398,278	14,481	634,556	466,556
399,292	14,509	633,928	466,130
400,307	14,400	633,307	465,329
401,321	14,441	632,441	464,765
402,336	14,361	631,662	463,930
403,350	14,454	630,923	463,604
404,365	14,407	630,360	463,020
405,380	14,422	629,861	462,655
406,394	14,518	629,635	462,714
407,409	14,521	629,220	462,375
408,423	14,490	628,835	461,966
409,438	14,486	628,498	461,667
410,453	14,487	628,189	461,403
411,467	14,539	628,029	461,386
412,482	14,496	627,740	461,014
413,496	14,467	627,416	460,656
414,511	14,303	627,297	460,074
415,526	14,396	627,196	460,218
416,540	14,348	627,291	460,113
417,555	14,504	627,243	460,468
418,569	14,546	627,116	460,451
419,584	14,570	626,868	460,294
420,599	14,575	626,626	460,089
421,613	14,662	626,477	460,178
422,628	14,702	626,182	460,032
423,642	14,627	625,767	459,479
424,657	14,471	625,340	458,697
425,672	14,544	625,138	458,708
426,686	14,587	624,751	458,500
427,701	14,644	624,477	458,416
428,715	14,606	624,141	458,024
429,730	14,578	623,776	457,640
430,745	14,697	623,282	457,563
431,759	14,717	622,768	457,199
432,774	14,597	622,206	456,417
433,788	14,510	621,648	455,730
434,803	14,685	620,985	455,683
435,818	14,599	620,559	455,095
436,832	14,620	620,102	454,775
437,847	14,651	619,706	454,532
438,861	14,651	619,215	454,131
439,876	14,747	618,680	453,958
440,890	14,712	617,929	453,271
441,905	14,654	617,197	452,539
442,920	14,731	616,628	452,291
443,934	14,683	616,331	451,901
444,949	14,679	616,144	451,714
445,963	14,812	615,920	451,870
446,978	14,817	615,624	451,626
447,993	14,799	615,392	451,367
449,007	14,703	615,189	450,919
450,022	14,733	615,060	450,865
451,036	14,807	614,819	450,849
452,051	14,779	614,837	450,745
453,066	14,733	614,768	450,532
454,080	14,709	614,879	450,508
455,095	14,753	614,924	450,620
456,109	14,742	614,850	450,497
457,124	14,828	614,621	450,520
458,139	14,767	614,422	450,170
459,153	14,758	614,118	449,884
460,168	14,784	613,886	449,745
461,182	14,904	613,540	449,774
462,197	14,948	613,085	449,517
463,212	14,888	612,642	448,992
464,226	14,863	612,260	448,604
465,241	14,868	611,775	448,225
466,255	14,849	611,286	447,776
467,270	14,843	610,818	447,376
468,285	14,971	610,363	447,347
469,299	14,828	609,747	446,473
470,314	14,822	609,172	445,995
471,328	14,847	608,788	445,743
472,343	14,947	608,421	445,701
473,358	15,011	607,926	445,469
474,372	15,092	607,511	445,340
475,387	15,047	606,981	444,794
476,401	15,098	606,434	444,488
477,416	15,046	606,003	443,995
478,430	14,994	605,551	443,486
479,445	14,924	604,838	442,740
480,460	14,906	604,382	442,320
481,474	15,026	603,980	442,304
482,489	15,008	603,592	441,932
483,503	14,964	603,326	441,583
484,518	15,071	603,272	441,786
485,533	15,145	603,011	441,750
486,547	15,147	602,762	441,535
487,562	15,096	602,693	441,312
488,576	15,074	602,613	441,156
489,591	15,088	602,387	440,990
490,606	15,148	602,269	441,020
491,620	15,072	602,177	440,715
492,635	15,021	602,231	440,581
493,649	15,073	602,557	440,916
494,664	15,153	602,546	441,081
495,679	15,127	602,305	440,795
496,693	15,136	601,975	440,540
497,708	15,236	601,657	440,531
498,722	15,246	601,332	440,279
499,737	15,231	600,812	439,821
500,752	15,234	600,433	439,512
501,766	15,286	599,908	439,226
502,781	15,238	599,283	438,602
503,795	15,248	598,849	438,274
504,810	15,279	598,325	437,931
505,825	15,251	597,519	437,229
506,839	15,238	596,863	436,677
507,854	15,210	596,274	436,136
508,868	15,227	595,712	435,729
509,883	15,214	595,142	435,241
510,898	15,176	594,682	434,767
511,912	15,154	594,199	434,319
512,927	15,261	593,899	434,338
513,941	15,250	593,547	434,014
514,956	15,128	592,975	433,241
515,971	15,057	592,518	432,685
516,985	15,189	592,336	432,855
518,000	15,261	591,996	432,754
519,014	15,301	591,739	432,633
520,029	15,228	591,428	432,178
521,043	15,173	591,140	431,788
522,058	15,117	590,935	431,455
523,073	15,218	590,825	431,596
524,087	15,183	590,654	431,344
525,102	15,102	590,557	431,026
526,116	15,156	590,427	431,030
527,131	15,168	590,141	430,815
528,146	15,111	590,097	430,599
529,160	15,251	589,929	430,797
530,175	15,048	589,700	430,071
531,189	14,933	589,462	429,565
532,204	14,842	589,388	429,238
533,219	14,856	589,245	429,132
534,233	14,834	588,982	428,845
535,248	14,908	588,598	428,718
536,262	14,853	588,070	428,155
537,277	14,910	587,675	427,975
538,292	14,826	587,155	427,343
539,306	14,763	586,815	426,898
540,321	14,898	586,342	426,861
541,335	14,997	585,849	426,717
542,350	15,109	585,398	426,635
543,365	15,156	584,812	426,290
544,379	15,040	584,097	425,437
545,394	15,100	583,250	424,935
546,408	15,098	582,617	424,430
547,423	15,026	581,994	423,757
548,438	15,038	581,535	423,415
549,452	15,085	581,211	423,261
550,467	15,136	580,767	423,030
551,481	15,115	580,274	422,579
552,496	15,092	580,012	422,293
553,511	15,190	579,773	422,330
554,525	15,314	579,627	422,498
555,540	15,519	579,624	422,976
556,554	15,577	579,386	422,909
557,569	15,665	579,301	423,030
558,583	15,635	579,225	422,864
559,598	15,536	579,221	422,573
560,613	15,462	579,059	422,231
561,627	15,555	579,005	422,390
562,642	15,639	578,906	422,489
563,656	15,556	578,630	422,043
564,671	15,390	578,455	421,460
565,686	15,556	578,252	421,692
566,700	15,635	578,225	421,834
567,715	15,849	578,108	422,248
568,729	15,877	577,855	422,097
569,744	16,005	577,420	422,062
570,759	15,915	577,125	421,585
571,773	15,765	576,804	420,936
572,788	15,564	576,603	420,249
573,802	15,819	576,429	420,722
574,817	16,110	576,163	421,220
575,832	16,336	575,735	421,434
576,846	16,248	575,205	420,788
577,861	16,090	574,598	419,913
578,875	16,050	574,188	419,478
579,890	16,355	573,839	419,944
580,905	16,471	573,460	419,916
581,919	16,565	573,207	419,929
582,934	16,791	572,785	420,144
583,948	16,690	571,997	419,277
584,963	16,327	571,099	417,684
585,978	16,394	570,541	417,405
586,992	16,371	570,223	417,078
588,007	16,409	569,774	416,807
589,021	16,550	569,640	417,018
590,036	16,668	569,380	417,083
591,051	16,566	569,088	416,582
592,065	16,751	569,004	416,938
593,080	16,822	568,781	416,913
594,094	16,497	568,343	415,757
595,109	16,351	568,160	415,227
596,123	16,443	568,174	415,425
597,138	16,477	568,238	415,519
598,153	16,614	568,447	415,971
599,167	16,902	568,587	416,746
600,182	16,796	568,537	416,411
601,196	16,654	568,209	415,784
602,211	16,698	567,945	415,664
603,226	16,861	567,901	415,995
604,240	16,742	567,405	415,303
605,255	16,443	567,001	414,237
606,269	16,492	566,778	414,158
607,284	16,753	566,586	414,620
608,299	16,839	566,169	414,488
609,313	16,627	565,697	413,589
610,328	16,645	565,328	413,326
611,342	16,974	565,197	413,997
612,357	17,279	565,065	414,607
613,372	17,180	564,554	413,955
614,386	17,003	563,791	412,928
615,401	16,783	563,243	411,956
616,415	16,699	562,880	411,448
617,430	16,964	562,512	411,786
618,445	17,197	562,164	412,060
619,459	17,161	561,681	411,584
620,474	17,043	561,127	410,856
621,488	16,794	560,443	409,716
622,503	16,648	559,840	408,885
623,518	16,771	559,415	408,836
624,532	17,236	559,081	409,679
625,547	17,362	558,743	409,698
626,561	17,134	558,194	408,709
627,576	16,814	557,737	407,569
628,591	16,575	557,482	406,772
629,605	16,600	557,310	406,670
630,620	16,448	557,008	406,049
631,634	15,863	556,441	404,196
632,649	15,535	556,035	403,078
633,663	15,416	555,699	402,513
634,678	15,324	555,708	402,262
635,693	15,549	555,969	402,957
636,707	15,980	556,446	404,302
637,722	15,987	556,383	404,237
638,736	15,696	556,144	403,329
639,751	15,769	556,058	403,407
640,766	16,251	556,050	404,519
641,780	16,550	555,999	405,162
642,795	16,713	555,768	405,349
643,809	16,726	555,289	404,996
644,824	16,106	554,534	402,928
645,839	15,607	553,963	401,286
646,853	16,108	554,013	402,484
647,868	16,591	553,849	403,480
648,882	16,733	553,431	403,479
649,897	16,629	552,895	402,804
650,912	16,701	551,878	402,199
651,926	17,066	546,195	398,879
652,941	16,966	538,287	392,839
653,955	16,571	534,143	388,871
654,970	17,013	532,929	388,967
655,985	17,314	532,518	389,322
656,999	17,287	532,130	388,942
658,014	17,366	531,433	388,579
659,028	17,363	530,911	388,156
660,043	17,475	530,314	387,940
661,058	17,402	529,901	387,437
662,072	17,429	529,501	387,174
663,087	17,207	528,953	386,233
664,101	17,043	528,398	385,420
665,116	17,009	527,878	384,931
666,131	16,298	526,964	382,619
667,145	15,900	526,420	381,289
668,160	16,240	526,270	381,916
669,174	16,306	525,927	381,782
670,189	15,987	525,242	380,531
671,204	15,734	524,704	379,537
672,218	15,534	524,244	378,720
673,233	15,767	524,141	379,138
674,247	16,721	524,466	381,490
675,262	17,660	524,725	383,759
676,276	17,995	524,546	384,347
677,291	18,041	524,227	384,183
678,306	18,000	523,833	383,768
679,320	17,940	523,479	383,341
680,335	17,950	523,042	383,010
681,349	18,030	522,805	382,982
682,364	18,092	522,590	382,928
683,379	18,220	522,275	382,951
684,393	18,207	521,895	382,609
685,408	18,383	521,605	382,755
686,422	18,459	521,152	382,559
687,437	18,484	520,642	382,208
688,452	18,519	520,373	382,055
689,466	18,543	520,123	381,890
690,481	18,540	519,751	381,577
691,495	18,408	519,298	380,915
692,510	18,219	518,872	380,149
693,525	18,231	518,598	379,943
694,539	18,235	518,158	379,596
695,554	18,243	517,885	379,379
696,568	18,185	517,573	378,989
697,583	18,168	517,368	378,766
698,598	18,230	517,105	378,678
699,612	18,189	516,826	378,349
700,627	18,266	516,497	378,247
701,641	18,310	516,184	378,081
702,656	18,239	515,905	377,687
703,671	18,312	515,516	377,529
704,685	18,258	515,255	377,184
705,700	18,247	515,069	376,990
706,714	18,303	514,813	376,894
707,729	18,372	514,419	376,724
708,744	18,355	514,115	376,430
709,758	18,372	513,809	376,211
710,773	18,361	513,600	376,000
711,787	18,581	513,317	376,242
712,802	18,943	513,237	376,944
713,816	19,176	513,083	377,308
714,831	19,165	512,742	377,001
715,846	19,109	512,372	376,573
716,860	19,169	512,032	376,421
717,875	19,295	511,719	376,433
718,889	19,273	511,440	376,145
719,904	19,259	511,063	375,805
720,919	19,185	510,643	375,302
721,933	19,180	510,370	375,057
722,948	19,178	509,930	374,695
723,962	19,209	509,607	374,491
724,977	19,121	509,454	374,155
725,992	19,132	509,194	373,955
727,006	19,131	508,721	373,572
728,021	19,023	508,235	372,948
729,035	18,985	507,908	372,593
730,050	19,032	507,717	372,523
731,065	19,147	507,412	372,514
732,079	19,063	507,183	372,130
733,094	18,834	506,917	371,409
734,108	18,733	506,600	370,925
735,123	18,593	506,223	370,313
736,138	18,386	505,950	369,634
737,152	18,300	505,686	369,224
738,167	18,363	505,365	369,092
739,181	18,400	505,061	368,917
740,196	18,442	504,931	368,880
741,211	18,701	504,800	369,309
742,225	18,964	504,811	369,850
743,240	19,115	504,457	369,882
744,254	19,096	504,303	369,697
745,269	19,141	504,066	369,587
746,284	19,158	503,771	369,373
747,298	19,196	503,582	369,284
748,313	19,223	503,329	369,124
749,327	19,159	503,045	368,744
750,342	19,154	502,669	368,427
751,356	19,131	502,395	368,144
752,371	19,164	502,104	367,968
753,386	19,181	501,827	367,769
754,400	19,302	501,527	367,776
755,415	19,275	501,194	367,441
756,429	19,242	500,813	367,058
757,444	19,143	500,606	366,664
758,459	19,130	500,341	366,410
759,473	19,078	499,982	366,004
760,488	19,069	499,664	365,720
761,502	18,944	499,273	365,135
762,517	19,008	498,943	364,998
763,532	18,955	498,643	364,634
764,546	18,892	498,351	364,255
765,561	18,876	497,993	363,927
766,575	18,815	497,615	363,489
767,590	18,653	497,412	362,965
768,605	18,683	497,144	362,802
769,619	18,729	496,808	362,621
770,634	18,701	496,400	362,233
771,648	18,644	496,035	361,814
772,663	18,627	495,718	361,515
773,678	18,625	495,385	361,235
774,692	18,565	495,307	361,021
775,707	18,654	494,920	360,894
776,721	18,631	494,616	360,591
777,736	18,557	494,462	360,292
778,751	18,600	494,229	360,180
779,765	18,550	494,000	359,878
780,780	18,646	493,731	359,851
781,794	18,684	493,400	359,657
782,809	18,723	492,920	359,357
783,824	19,100	490,615	358,431
784,838	19,193	485,875	355,128
785,853	19,023	482,321	352,150
786,867	19,244	481,310	351,833
787,882	19,454	481,456	352,337
788,897	18,534	489,738	356,455
789,911	18,819	503,849	367,302
790,926	19,493	512,276	374,876
791,940	19,273	513,883	375,539
792,955	19,202	513,580	375,130
793,969	19,178	513,549	375,023
794,984	19,086	513,998	375,116
795,999	19,156	514,628	375,697
797,013	19,172	514,701	375,752
798,028	19,195	514,387	375,539
799,042	19,124	514,155	375,181
800,057	19,070	514,005	374,920
801,072	18,896	514,016	374,518
802,086	18,689	513,819	373,888
803,101	18,767	513,351	373,686
804,115	18,883	512,798	373,502
805,130	18,759	512,571	373,035
806,145	18,611	512,257	372,453
807,159	18,554	511,741	371,919
808,174	18,465	511,014	371,166
809,188	18,523	510,337	370,767
810,203	18,529	509,879	370,414
811,218	18,483	509,667	370,128
812,232	18,426	509,862	370,113
813,247	18,405	509,995	370,131
814,261	18,578	509,962	370,450
815,276	18,768	509,452	370,455
816,291	18,742	508,890	369,958
817,305	18,923	508,255	369,852
818,320	19,241	507,971	370,298
819,334	19,571	507,840	370,878
820,349	19,717	507,865	371,178
821,364	19,779	508,248	371,557
822,378	19,896	508,164	371,715
823,393	19,929	507,484	371,255
824,407	19,810	506,975	370,595
825,422	19,810	506,807	370,438
826,437	19,713	506,635	370,074
827,451	19,618	506,396	369,663
828,466	19,432	506,051	368,980
829,480	19,398	505,611	368,555
830,495	19,327	505,127	368,016
831,509	19,174	504,332	367,079
832,524	18,885	503,467	365,803
833,539	18,710	502,887	364,977
834,553	18,624	502,315	364,345
835,568	18,565	502,408	364,256
836,582	18,606	502,692	364,517
837,597	18,603	502,652	364,449
838,612	18,671	502,119	364,175
839,626	18,665	501,397	363,606
840,641	18,647	500,525	362,904
841,655	18,560	500,212	362,461
842,670	18,527	500,419	362,508
843,685	18,594	500,567	362,727
844,699	18,585	500,598	362,698
845,714	18,686	499,999	362,444
846,728	18,654	499,367	361,886
847,743	18,687	499,058	361,700
848,758	18,616	499,144	361,581
849,772	18,645	499,124	361,596
850,787	18,662	498,959	361,479
851,801	18,625	498,513	361,046
852,816	18,595	497,888	360,500
853,831	18,660	497,823	360,556
854,845	18,695	498,037	360,754
855,860	18,991	496,735	360,399
856,874	19,268	488,690	355,101
857,889	18,721	478,824	346,798
858,904	18,167	474,076	342,219
859,918	18,396	472,706	341,656
860,933	18,315	472,132	341,050
861,947	18,259	471,749	340,633
862,962	18,160	471,095	339,934
863,977	18,122	470,452	339,363
864,991	18,174	470,076	339,164
866,006	18,208	469,904	339,080
867,020	18,287	469,542	338,943
868,035	18,307	469,104	338,638
869,049	18,288	468,821	338,366
870,064	18,297	468,563	338,167
871,079	18,348	468,232	337,999
872,093	18,254	467,956	337,585
873,108	18,263	467,624	337,333
874,122	18,270	467,313	337,092
875,137	18,117	466,823	336,408
876,152	17,451	465,972	334,457
877,166	16,329	465,223	331,688
878,181	15,905	464,731	330,475
879,195	16,149	464,490	330,754
880,210	16,339	464,355	330,999
881,225	16,366	464,159	330,884
882,239	16,427	463,844	330,749
883,254	16,352	463,523	330,345
884,268	16,281	463,243	329,977
885,283	16,234	462,888	329,604
886,298	16,117	462,623	329,156
887,312	16,387	462,471	329,546
888,327	16,893	462,465	330,499
889,341	17,262	462,425	331,160
890,356	17,303	462,251	331,087
891,371	17,356	461,922	330,924
892,385	17,543	461,605	331,032
893,400	17,435	461,432	330,670
894,414	17,442	461,273	330,540
895,429	17,420	460,934	330,224
896,444	17,452	460,597	330,017
897,458	17,490	460,356	329,889
898,473	17,550	460,090	329,783
899,487	17,486	459,838	329,451
900,502	17,447	459,558	329,144
901,517	17,440	459,316	328,929
902,531	17,441	459,081	328,733
903,546	17,408	458,814	328,450
904,560	17,460	458,461	328,268
905,575	17,477	458,116	328,025
906,589	18,095	454,426	326,535
907,604	17,894	446,849	320,685
908,619	17,424	440,840	315,473
909,633	17,287	438,642	313,619
910,648	17,401	437,909	313,278
911,662	17,498	437,312	313,001
912,677	17,530	436,801	312,666
913,692	17,485	436,273	312,178
914,706	17,487	435,740	311,773
915,721	17,507	435,366	311,514
916,735	17,575	435,113	311,430
917,750	17,611	434,795	311,240
918,765	17,615	434,417	310,950
919,779	17,623	434,150	310,746
920,794	17,655	433,868	310,574
921,808	17,639	433,584	310,315
922,823	17,687	433,240	310,128
923,838	17,621	432,905	309,740
924,852	17,561	432,572	309,367
925,867	17,229	432,000	308,328
926,881	16,810	431,367	307,089
927,896	16,730	431,208	306,804
928,911	17,057	431,198	307,361
929,925	17,259	431,017	307,571
930,940	17,414	430,807	307,675
931,954	17,356	430,488	307,314
932,969	17,286	430,140	306,913
933,984	17,010	429,614	306,012
934,998	16,522	429,075	304,722
936,013	16,065	428,675	303,589
937,027	15,741	428,152	302,608
938,042	15,764	428,229	302,677
939,057	16,785	428,442	304,638
940,071	17,313	428,278	305,443
941,086	17,206	428,009	305,032
942,100	17,141	427,688	304,660
943,115	17,015	427,420	304,216
944,130	17,044	427,096	304,012
945,144	16,942	426,823	303,607
946,159	16,986	426,614	303,510
947,173	17,216	426,389	303,734
948,188	17,253	426,159	303,611
949,202	17,257	425,889	303,398
950,217	17,123	425,561	302,898
951,232	16,902	425,323	302,308
952,246	16,979	425,073	302,241
953,261	17,060	424,787	302,155
954,275	17,003	424,503	301,825
955,290	17,028	424,261	301,670
956,305	17,158	423,990	301,682
957,319	17,042	423,648	301,207
958,334	16,946	423,277	300,746
959,348	16,731	422,952	300,107
960,363	16,753	422,761	299,984
961,378	16,780	422,550	299,855
962,392	16,772	422,241	299,596
963,407	16,558	421,836	298,904
964,421	16,510	421,660	298,668
965,436	16,493	421,507	298,502
966,451	16,517	421,134	298,253
967,465	16,628	420,797	298,184
968,480	16,609	420,480	297,901
969,494	16,568	420,119	297,546
970,509	16,383	419,797	296,966
971,524	16,264	419,376	296,434
972,538	16,306	419,046	296,248
973,553	16,265	418,785	295,965
974,567	16,276	418,587	295,819
975,582	16,385	418,384	295,840
976,597	16,459	418,240	295,842
977,611	16,682	418,107	296,112
978,626	16,764	417,732	295,962
979,640	16,375	417,244	294,911
980,655	16,067	416,931	294,127
981,670	16,129	416,783	294,104
982,684	16,218	416,624	294,121
983,699	16,330	416,258	294,033
984,713	16,223	415,998	293,636
985,728	16,010	415,731	293,052
986,742	15,890	415,460	292,627
987,757	15,966	415,264	292,593
988,772	16,041	415,116	292,593
989,786	16,176	414,803	292,582
990,801	16,218	414,616	292,497
991,815	16,352	414,420	292,565
992,830	16,276	414,040	292,140
993,845	15,951	413,755	291,350
994,859	15,826	413,524	290,946
995,874	16,007	413,479	291,200
996,888	16,220	413,323	291,434
997,903	16,121	413,037	291,035
998,918	15,997	412,726	290,576
999,932	15,988	412,476	290,359
1000,947	16,119	412,401	290,507
1001,961	16,188	412,201	290,459
1002,976	16,039	411,887	289,955
1003,991	15,809	411,477	289,245
1005,005	15,781	411,102	288,908
1006,020	15,899	410,906	288,948
1007,034	16,028	410,602	288,929
1008,049	16,034	410,331	288,723
1009,064	15,926	410,076	288,333
1010,078	16,020	409,882	288,333
1011,093	15,970	409,724	288,109
1012,107	15,845	409,275	287,555
1013,122	15,745	408,970	287,145
1014,137	15,649	408,813	286,846
1015,151	15,965	408,735	287,304
1016,166	16,115	408,658	287,480
1017,180	16,053	408,424	287,184
1018,195	16,145	408,060	287,059
1019,210	16,093	407,753	286,731
1020,224	15,862	407,498	286,132
1021,239	15,741	407,272	285,744
1022,253	15,941	407,119	285,951
1023,268	16,024	406,812	285,851
1024,282	15,979	406,609	285,606
1025,297	15,989	406,360	285,423
1026,312	15,713	405,989	284,670
1027,326	15,573	405,755	284,244
1028,341	15,765	405,726	284,524
1029,355	16,102	405,604	284,982
1030,370	15,995	405,251	284,528
1031,385	15,853	404,893	284,012
1032,399	15,665	404,570	283,443
1033,414	15,734	404,405	283,419
1034,428	15,865	404,281	283,527
1035,443	15,859	404,038	283,323
1036,458	15,886	403,960	283,288
1037,472	15,933	403,716	283,171
1038,487	15,937	403,407	282,936
1039,501	15,878	403,176	282,649
1040,516	15,702	402,945	282,168
1041,531	15,602	402,679	281,787
1042,545	15,931	402,522	282,205
1043,560	16,119	402,447	282,441
1044,574	16,053	402,127	282,082
1045,589	15,824	401,833	281,468
1046,604	15,656	401,409	280,865
1047,618	15,497	401,065	280,335
1048,633	15,479	400,818	280,107
1049,647	15,428	400,534	279,798
1050,662	15,367	400,278	279,493
1051,677	15,302	400,010	279,173
1052,691	15,287	399,791	278,970
1053,706	15,262	399,465	278,677
1054,720	15,257	399,241	278,488
1055,735	15,339	399,046	278,464
1056,750	15,424	398,815	278,419
1057,764	15,342	398,590	278,101
1058,779	15,307	398,368	277,864
1059,793	15,411	398,143	277,854
1060,808	15,588	397,984	278,012
1061,823	15,473	397,762	277,641
1062,837	15,354	397,402	277,169
1063,852	15,195	397,145	276,702
1064,866	15,315	396,913	276,715
1065,881	15,240	396,663	276,392
1066,895	15,280	396,510	276,328
1067,910	15,440	396,349	276,453
1068,925	15,412	396,092	276,204
1069,939	15,392	395,770	275,921
1070,954	15,305	395,543	275,596
1071,968	15,251	395,301	275,316
1072,983	15,261	394,980	275,083
1073,998	15,183	394,780	274,792
1075,012	15,293	394,542	274,781
1076,027	15,245	394,381	274,567
1077,041	15,330	394,134	274,511
1078,056	15,252	393,808	274,130
1079,071	15,139	393,563	273,750
1080,085	15,109	393,336	273,521
1081,100	15,167	393,123	273,442
1082,114	15,261	392,996	273,484
1083,129	15,267	392,844	273,364
1084,144	15,302	392,557	273,197
1085,158	15,405	392,376	273,214
1086,173	15,512	392,218	273,254
1087,187	15,459	392,059	273,033
1088,202	15,473	391,830	272,873
1089,217	15,509	391,676	272,799
1090,231	15,281	391,444	272,243
1091,246	15,174	391,159	271,846
1092,260	15,145	390,978	271,650
1093,275	15,315	390,696	271,706
1094,290	15,284	390,414	271,435
1095,304	15,321	390,252	271,358
1096,319	15,255	390,114	271,132
1097,333	15,396	390,017	271,268
1098,348	15,647	389,754	271,466
1099,363	15,627	389,349	271,129
1100,377	15,582	389,107	270,863
1101,392	15,657	388,832	270,769
1102,406	15,607	388,625	270,521
1103,421	15,623	388,496	270,433
1104,435	15,716	388,268	270,400
1105,450	15,768	388,030	270,293
1106,465	15,560	387,781	269,762
1107,479	15,395	387,485	269,266
1108,494	15,412	387,288	269,135
1109,508	15,497	387,067	269,093
1110,523	15,565	386,838	269,017
1111,538	15,627	386,726	269,016
1112,552	15,624	386,515	268,840
1113,567	15,576	386,261	268,563
1114,581	15,577	386,079	268,416
1115,596	15,690	385,898	268,446
1116,611	15,678	385,669	268,243
1117,625	15,768	385,500	268,246
1118,640	15,716	385,265	267,975
1119,654	15,828	385,026	267,964
1120,669	15,747	384,803	267,657
1121,684	15,739	384,664	267,522
1122,698	15,679	384,455	267,259
1123,713	15,742	384,243	267,187
1124,727	15,677	383,978	266,877
1125,742	15,578	383,665	266,478
1126,757	15,415	383,398	266,011
1127,771	15,337	383,182	265,715
1128,786	15,306	382,900	265,446
1129,800	15,311	382,736	265,317
1130,815	15,278	382,612	265,155
1131,830	15,411	382,470	265,243
1132,844	15,657	382,308	265,497
1133,859	15,588	382,120	265,233
1134,873	15,659	381,943	265,199
1135,888	15,698	381,715	265,079
1136,903	15,689	381,503	264,893
1137,917	15,609	381,205	264,538
1138,932	15,610	380,874	264,286
1139,946	15,936	380,786	264,715
1140,961	16,007	380,646	264,705
1141,975	15,899	380,387	264,331
1142,990	15,791	380,021	263,885
1144,005	15,839	379,805	263,786
1145,019	15,740	379,663	263,510
1146,034	15,710	379,517	263,337
1147,048	15,888	379,312	263,451
1148,063	15,809	379,109	263,163
1149,078	15,721	378,867	262,834
1150,092	15,472	378,526	262,185
1151,107	15,523	378,209	262,022
1152,121	15,462	377,964	261,734
1153,136	15,361	377,648	261,335
1154,151	15,303	377,386	261,040
1155,165	15,250	377,058	260,709
1156,180	15,239	376,726	260,439
1157,194	15,156	376,476	260,113
1158,209	15,244	376,296	260,103
1159,224	15,524	376,272	260,498
1160,238	15,761	376,107	260,728
1161,253	15,638	375,837	260,327
1162,267	15,441	375,479	259,750
1163,282	15,353	375,244	259,430
1164,297	15,391	375,011	259,303
1165,311	15,396	374,835	259,166
1166,326	15,462	374,616	259,094
1167,340	15,570	374,471	259,138
1168,355	15,672	374,417	259,235
1169,370	15,786	374,234	259,261
1170,384	15,732	373,934	258,947
1171,399	15,745	373,724	258,798
1172,413	15,588	373,516	258,390
1173,428	15,655	373,327	258,340
1174,443	15,758	373,162	258,360
1175,457	15,805	372,878	258,213
1176,472	15,752	372,609	257,923
1177,486	15,648	372,397	257,594
1178,501	15,739	372,249	257,609
1179,515	15,696	372,058	257,388
1180,530	15,653	371,812	257,129
1181,545	15,509	371,556	256,710
1182,559	15,489	371,301	256,479
1183,574	15,562	371,094	256,425
1184,588	15,675	370,935	256,465
1185,603	15,608	370,709	256,184
1186,618	15,496	370,495	255,842
1187,632	15,609	370,262	255,831
1188,647	15,580	370,036	255,609
1189,661	15,655	369,772	255,517
1190,676	15,750	369,571	255,500
1191,691	15,881	369,363	255,532
1192,705	15,773	369,090	255,157
1193,720	15,556	368,862	254,649
1194,734	15,675	368,704	254,697
1195,749	15,811	368,599	254,807
1196,764	15,823	368,466	254,712
1197,778	15,890	368,204	254,609
1198,793	15,860	367,974	254,382
1199,807	15,768	367,786	254,090
1200,822	15,851	367,528	254,016
1201,837	15,914	367,335	253,955
1202,851	15,740	367,193	253,572
1203,866	15,756	366,829	253,322
1204,880	15,536	366,526	252,760
1205,895	15,391	366,330	252,384
1206,910	15,484	366,243	252,442
1207,924	15,565	366,067	252,419
1208,939	15,767	365,880	252,571
1209,953	15,943	365,735	252,713
1210,968	15,920	365,631	252,584
1211,983	15,820	365,390	252,246
1212,997	15,754	365,084	251,913
1214,012	15,895	364,920	251,988
1215,026	15,856	364,709	251,762
1216,041	15,774	364,485	251,462
1217,056	15,548	364,230	250,927
1218,070	15,487	363,992	250,651
1219,085	15,562	363,746	250,570
1220,099	15,427	363,583	250,235
1221,114	15,421	363,304	250,011
1222,128	15,388	363,008	249,736
1223,143	15,367	362,877	249,593
1224,158	15,378	362,713	249,474
1225,172	15,421	362,465	249,345
1226,187	15,417	362,350	249,239
1227,201	15,378	362,151	249,022
1228,216	15,295	361,738	248,592
1229,231	15,264	361,405	248,295
1230,245	15,383	361,260	248,350
1231,260	15,381	361,176	248,269
1232,274	15,464	360,997	248,246
1233,289	15,541	360,860	248,243
1234,304	15,363	360,523	247,727
1235,318	15,230	360,286	247,345
1236,333	15,087	360,075	246,968
1237,347	15,268	359,880	247,079
1238,362	15,263	359,737	246,951
1239,377	15,237	359,526	246,746
1240,391	15,141	359,235	246,384
1241,406	15,284	359,132	246,502
1242,420	15,487	358,990	246,681
1243,435	15,507	358,771	246,537
1244,450	15,269	358,467	245,958
1245,464	15,198	358,206	245,652
1246,479	15,156	357,965	245,404
1247,493	15,213	357,801	245,353
1248,508	15,351	357,654	245,433
1249,523	15,366	357,402	245,260
1250,537	15,404	357,251	245,191
1251,552	15,525	357,122	245,257
1252,566	15,482	356,848	244,984
1253,581	15,386	356,558	244,623
1254,596	15,450	356,406	244,592
1255,610	15,352	356,211	244,293
1256,625	15,201	356,031	243,928
1257,639	15,329	355,864	243,977
1258,654	15,467	355,612	243,984
1259,668	15,243	355,373	243,473
1260,683	15,241	355,214	243,341
1261,698	15,354	355,009	243,343
1262,712	15,525	354,854	243,462
1263,727	15,607	354,607	243,390
1264,741	15,444	354,371	242,971
1265,756	15,338	354,141	242,638
1266,771	15,403	353,937	242,571
1267,785	15,513	353,842	242,643
1268,800	15,435	353,708	242,417
1269,814	15,538	353,497	242,400
1270,829	15,653	353,385	242,467
1271,844	15,682	353,170	242,340
1272,858	15,589	352,915	242,010
1273,873	15,766	352,807	242,169
1274,887	15,993	352,694	242,396
1275,902	16,337	352,655	242,844
1276,917	16,256	352,392	242,524
1277,931	15,977	352,093	241,897
1278,946	15,799	351,856	241,457
1279,960	16,050	351,761	241,730
1280,975	16,059	351,576	241,594
1281,990	16,198	351,438	241,678
1283,004	16,220	351,314	241,603
1284,019	16,021	351,057	241,119
1285,033	15,936	350,858	240,840
1286,048	15,930	350,589	240,626
1287,063	15,904	350,316	240,380
1288,077	15,862	350,183	240,207
1289,092	16,114	350,031	240,441
1290,106	16,390	349,858	240,694
1291,121	16,131	349,575	240,109
1292,136	15,776	349,278	239,379
1293,150	15,757	349,128	239,228
1294,165	15,981	349,039	239,464
1295,179	16,227	348,873	239,679
1296,194	16,192	348,754	239,525
1297,208	16,316	348,509	239,512
1298,223	16,092	348,264	239,005
1299,238	15,935	348,070	238,629
1300,252	16,188	347,860	238,822
1301,267	16,226	347,650	238,710
1302,281	16,219	347,446	238,539
1303,296	16,271	347,277	238,475
1304,311	16,235	347,059	238,254
1305,325	15,987	346,742	237,666
1306,340	15,771	346,460	237,147
1307,354	15,908	346,355	237,247
1308,369	16,217	346,282	237,611
1309,384	16,200	346,144	237,471
1310,398	16,151	345,946	237,245
1311,413	16,145	345,758	237,087
1312,427	16,184	345,525	236,960
1313,442	16,200	345,294	236,804
1314,457	16,010	345,080	236,370
1315,471	15,945	344,898	236,134
1316,486	16,161	344,771	236,328
1317,500	16,374	344,713	236,566
1318,515	16,390	344,536	236,446
1319,530	16,349	344,230	236,158
1320,544	16,136	344,021	235,696
1321,559	16,147	343,925	235,625
1322,573	16,410	343,736	235,841
1323,588	16,383	343,486	235,612
1324,603	16,260	343,225	235,240
1325,617	16,237	343,031	235,054
1326,632	16,396	342,935	235,189
1327,646	16,373	342,776	235,026
1328,661	16,359	342,565	234,841
1329,676	16,342	342,341	234,644
1330,690	16,145	342,148	234,218
1331,705	15,994	341,888	233,810
1332,719	16,072	341,619	233,713
1333,734	16,044	341,428	233,523
1334,749	16,110	341,320	233,520
1335,763	16,338	341,211	233,739
1336,778	16,388	341,063	233,686
1337,792	16,422	340,781	233,520
1338,807	16,290	340,490	233,118
1339,821	16,333	340,397	233,094
1340,836	16,735	340,453	233,665
1341,851	17,072	340,274	233,986
1342,865	16,869	339,986	233,489
1343,880	16,578	339,776	232,923
1344,894	16,674	339,524	232,861
1345,909	16,546	339,347	232,543
1346,924	16,429	339,097	232,191
1347,938	16,438	338,834	232,002
1348,953	16,424	338,773	231,920
1349,967	16,665	338,654	232,150
1350,982	16,806	338,460	232,189
1351,997	16,668	338,222	231,816
1353,011	16,705	338,063	231,738
1354,026	16,743	337,936	231,682
1355,040	16,928	337,832	231,842
1356,055	17,131	337,644	231,972
1357,070	17,050	337,438	231,698
1358,084	16,903	337,171	231,294
1359,099	17,002	336,971	231,272
1360,113	17,029	336,814	231,180
1361,128	17,017	336,649	231,029
1362,143	17,451	336,573	231,548
1363,157	17,641	336,404	231,669
1364,172	17,441	336,127	231,186
1365,186	17,389	336,014	231,017
1366,201	17,495	335,884	231,051
1367,216	17,566	335,676	230,985
1368,230	17,476	335,391	230,646
1369,245	17,268	335,124	230,161
1370,259	17,091	334,914	229,756
1371,274	17,271	334,750	229,866
1372,289	17,170	334,651	229,642
1373,303	17,417	334,562	229,894
1374,318	17,421	334,341	229,727
1375,332	17,304	334,214	229,461
1376,347	17,280	334,008	229,268
1377,361	17,270	333,793	229,087
1378,376	17,214	333,667	228,904
1379,391	17,517	333,621	229,260
1380,405	17,511	333,286	229,001
1381,420	16,704	332,744	227,525
1382,434	16,046	332,362	226,361
1383,449	16,153	332,261	226,416
1384,464	16,477	332,163	226,763
1385,478	16,859	332,153	227,248
1386,493	17,356	332,122	227,873
1387,507	17,626	332,026	228,149
1388,522	17,545	331,884	227,923
1389,537	17,533	331,595	227,687
1390,551	17,494	331,344	227,443
1391,566	17,150	331,076	226,780
1392,580	16,916	330,784	226,248
1393,595	17,256	330,753	226,660
1394,610	17,629	330,715	227,111
1395,624	17,902	330,626	227,394
1396,639	17,862	330,509	227,240
1397,653	17,891	330,308	227,121
1398,668	17,812	330,072	226,832
1399,683	17,822	329,916	226,718
1400,697	17,858	329,775	226,649
1401,712	17,815	329,536	226,408
1402,726	17,879	329,301	226,312
1403,741	17,926	329,003	226,149
1404,756	17,898	328,762	225,926
1405,770	17,814	328,555	225,652
1406,785	17,809	328,349	225,485
1407,799	17,891	328,134	225,426
1408,814	17,816	327,943	225,176
1409,829	17,775	327,768	224,981
1410,843	17,876	327,596	224,976
1411,858	17,967	327,236	224,829
1412,872	18,024	326,513	224,387
1413,887	18,014	325,899	223,932
1414,901	17,908	325,550	223,534
1415,916	17,781	325,300	223,177
1416,931	17,890	325,001	223,094
1417,945	17,757	324,797	222,760
1418,960	17,743	324,522	222,533
1419,974	17,902	324,253	222,537
1420,989	17,914	324,001	222,360
1422,004	17,958	323,769	222,238
1423,018	17,800	323,630	221,918
1424,033	17,818	323,461	221,806
1425,047	18,003	323,238	221,873
1426,062	17,979	322,946	221,622
1427,077	17,582	322,554	220,819
1428,091	17,039	322,173	219,836
1429,106	16,708	321,884	219,191
1430,120	16,714	321,723	219,069
1431,135	16,558	321,449	218,662
1432,150	16,615	321,207	218,551
1433,164	16,643	321,000	218,427
1434,179	16,653	320,783	218,273
1435,193	16,750	320,570	218,233
1436,208	16,983	320,453	218,435
1437,223	17,255	320,492	218,793
1438,237	17,938	320,474	219,639
1439,252	17,907	320,182	219,381
1440,266	17,180	319,696	218,094
1441,281	16,582	319,246	217,002
1442,296	16,437	319,129	216,717
1443,310	16,489	319,090	216,738
1444,325	17,177	319,149	217,641
1445,339	18,199	319,367	219,080
1446,354	19,070	319,652	220,372
1447,369	20,032	319,808	221,691
1448,383	20,940	319,967	222,944
1449,398	21,556	319,902	223,666
1450,412	21,123	319,538	222,839
1451,427	20,320	318,998	221,419
1452,441	19,617	318,462	220,132
1453,456	19,224	318,051	219,328
1454,471	18,507	317,651	218,120
1455,485	18,001	317,288	217,209
1456,500	17,908	317,029	216,894
1457,514	18,298	316,911	217,289
1458,529	18,453	316,883	217,448
1459,544	18,534	316,748	217,438
1460,558	18,363	316,403	216,966
1461,573	17,613	315,919	215,666
1462,587	16,855	315,558	214,442
1463,602	16,966	315,427	214,474
1464,617	17,528	315,496	215,212
1465,631	18,187	315,568	216,076
1466,646	18,303	315,399	216,087
1467,660	17,680	315,077	215,062
1468,675	17,165	314,635	214,092
1469,690	16,705	314,140	213,157
1470,704	16,244	313,773	212,309
1471,719	16,011	313,565	211,857
1472,733	16,196	313,416	211,970
1473,748	16,773	313,611	212,808
1474,763	17,953	313,830	214,420
1475,777	18,607	313,709	215,139
1476,792	18,588	313,467	214,931
1477,806	18,586	313,282	214,782
1478,821	18,504	313,048	214,501
1479,836	18,528	312,804	214,344
1480,850	18,394	312,679	214,072
1481,865	18,510	312,507	214,080
1482,879	18,666	312,324	214,130
1483,894	18,290	312,789	213,960
1484,909	18,058	316,245	216,012
1485,923	18,410	321,073	219,742
1486,938	18,665	323,486	221,703
1487,952	18,515	323,823	221,720
1488,967	18,515	323,526	221,498
1489,982	18,401	323,395	221,241
1490,996	18,457	323,325	221,245
1492,011	18,508	323,184	221,195
1493,025	18,457	323,006	220,989
1494,040	18,496	322,815	220,888
1495,054	18,475	322,626	220,713
1496,069	18,418	322,405	220,469
1497,084	18,379	322,157	220,230
1498,098	18,361	321,905	220,015
1499,113	18,360	321,655	219,822
1500,127	18,405	321,484	219,744
1501,142	18,446	321,358	219,690
1502,157	18,633	321,189	219,795
1503,171	18,967	321,008	220,080
1504,186	19,024	320,742	219,951
1505,200	18,536	320,413	219,082
1506,215	18,344	320,250	218,707
1507,230	18,961	320,298	219,508
1508,244	19,501	320,268	220,157
1509,259	19,835	320,193	220,511
1510,273	19,987	319,904	220,486
1511,288	19,577	319,609	219,742
1512,303	19,454	319,407	219,428
1513,317	19,480	319,044	219,192
1514,332	18,908	318,564	218,116
1515,346	17,884	318,000	216,414
1516,361	17,146	317,540	215,148
1517,376	16,963	317,208	214,671
1518,390	16,739	316,877	214,146
1519,405	16,115	316,668	213,197
1520,419	16,460	316,554	213,537
1521,434	17,152	316,520	214,369
1522,449	17,172	316,371	214,274
1523,463	17,197	316,146	214,135
1524,478	17,117	315,946	213,879
1525,492	17,107	315,770	213,728
1526,507	17,021	315,589	213,479
1527,522	17,084	315,416	213,421
1528,536	17,194	315,179	213,381
1529,551	16,991	314,967	212,963
1530,565	16,846	314,889	212,711
1531,580	16,855	314,676	212,558
1532,594	16,756	314,453	212,265
1533,609	16,719	314,297	212,095
1534,624	16,882	314,095	212,144
1535,638	16,937	313,898	212,061
1536,653	16,869	313,731	211,844
1537,667	16,850	313,649	211,746
1538,682	16,835	313,386	211,532
1539,697	16,715	313,020	211,116
1540,711	16,800	312,861	211,096
1541,726	16,870	312,729	211,075
1542,740	16,800	312,531	210,836
1543,755	16,595	312,335	210,430
1544,770	16,806	312,161	210,556
1545,784	16,728	312,024	210,348
1546,799	16,658	311,831	210,113
1547,813	16,762	311,554	210,037
1548,828	16,710	311,414	209,860
1549,843	16,796	311,323	209,886
1550,857	16,601	310,982	209,396
1551,872	16,508	310,662	209,047
1552,886	16,546	310,517	208,978
1553,901	16,639	310,388	208,988
1554,916	16,612	310,204	208,812
1555,930	16,437	310,003	208,442
1556,945	16,606	309,884	208,552
1557,959	16,638	309,765	208,493
1558,974	16,515	309,538	208,170
1559,989	16,494	309,310	207,973
1561,003	16,397	309,173	207,743
1562,018	16,597	308,979	207,839
1563,032	16,651	308,747	207,732
1564,047	16,642	308,556	207,573
1565,062	16,710	308,344	207,495
1566,076	16,405	308,110	206,946
1567,091	16,503	307,911	206,915
1568,105	16,651	307,751	206,970
1569,120	16,404	307,556	206,519
1570,134	16,263	307,308	206,161
1571,149	16,353	307,073	206,095
1572,164	16,228	306,909	205,815
1573,178	16,213	306,821	205,719
1574,193	16,507	306,737	206,003
1575,207	16,630	306,561	206,017
1576,222	16,442	306,301	205,595
1577,237	16,277	306,050	205,207
1578,251	16,319	305,924	205,156
1579,266	16,353	305,779	205,082
1580,280	16,220	305,629	204,802
1581,295	16,180	305,421	204,596
1582,310	16,120	305,177	204,341
1583,324	15,884	305,054	203,956
1584,339	16,086	304,895	204,076
1585,353	16,246	304,610	204,060
1586,368	16,192	304,445	203,866
1587,383	16,199	304,362	203,800
1588,397	16,341	304,203	203,848
1589,412	16,312	304,078	203,711
1590,426	15,965	303,899	203,154
1591,441	16,168	303,675	203,232
1592,456	16,311	303,556	203,306
1593,470	16,061	303,392	202,878
1594,485	15,889	303,138	202,482
1595,499	15,940	302,974	202,417
1596,514	16,003	302,879	202,411
1597,529	16,173	302,759	202,517
1598,543	16,080	302,552	202,249
1599,558	16,016	302,284	201,975
1600,572	15,965	302,135	201,797
1601,587	15,984	301,935	201,668
1602,602	15,926	301,772	201,473
1603,616	15,945	301,630	201,382
1604,631	15,921	301,438	201,208
1605,645	15,985	301,292	201,168
1606,660	15,962	301,182	201,050
1607,674	15,949	301,030	200,915
1608,689	15,951	300,785	200,736
1609,704	16,033	300,606	200,696
1610,718	15,966	300,500	200,528
1611,733	15,944	300,328	200,370
1612,747	16,004	300,148	200,303
1613,762	15,739	299,922	199,820
1614,777	15,613	299,658	199,476
1615,791	15,589	299,506	199,329
1616,806	15,868	299,373	199,554
1617,820	15,634	299,212	199,151
1618,835	15,724	299,044	199,129
1619,850	15,837	298,852	199,117
1620,864	15,844	298,666	198,983
1621,879	15,939	298,439	198,927
1622,893	15,917	298,306	198,795
1623,908	15,867	298,207	198,652
1624,923	15,826	298,098	198,514
1625,937	15,962	297,928	198,543
1626,952	15,853	297,714	198,255
1627,966	15,926	297,514	198,189
1628,981	16,006	297,422	198,205
1629,996	15,909	297,245	197,956
1631,010	15,888	297,039	197,776
1632,025	15,726	296,810	197,416
1633,039	15,657	296,644	197,207
1634,054	15,740	296,555	197,228
1635,069	15,860	296,373	197,230
1636,083	15,984	296,163	197,219
1637,098	15,949	296,003	197,054
1638,112	15,955	295,825	196,924
1639,127	15,895	295,646	196,717
1640,142	15,807	295,463	196,475
1641,156	15,746	295,270	196,258
1642,171	15,803	295,081	196,182
1643,185	15,773	294,918	196,022
1644,200	15,924	294,818	196,114
1645,215	15,954	294,649	196,018
1646,229	15,923	294,429	195,819
1647,244	15,903	294,268	195,672
1648,258	15,938	294,166	195,627
1649,273	15,971	293,955	195,507
1650,287	15,973	293,741	195,351
1651,302	16,007	293,630	195,299
1652,317	15,973	293,504	195,159
1653,331	15,857	293,277	194,855
1654,346	15,958	293,077	194,822
1655,360	16,054	292,919	194,811
1656,375	15,861	292,687	194,416
1657,390	15,827	292,505	194,239
1658,404	15,806	292,353	194,096
1659,419	15,786	292,201	193,956
1660,433	15,759	291,978	193,759
1661,448	15,792	291,800	193,662
1662,463	15,889	291,722	193,705
1663,477	15,828	291,572	193,517
1664,492	15,823	291,423	193,396
1665,506	15,860	291,251	193,308
1666,521	15,910	291,116	193,258
1667,536	15,908	290,902	193,096
1668,550	16,001	290,675	193,035
1669,565	15,931	290,525	192,838
1670,579	15,847	290,359	192,615
1671,594	15,989	290,183	192,644
1672,609	15,798	290,001	192,287
1673,623	15,610	289,888	191,982
1674,638	15,560	289,754	191,817
1675,652	15,600	289,574	191,728
1676,667	15,722	289,435	191,757
1677,682	15,773	289,303	191,712
1678,696	15,641	289,128	191,428
1679,711	15,670	288,888	191,285
1680,725	15,731	288,719	191,226
1681,740	15,691	288,580	191,072
1682,755	15,697	288,344	190,906
1683,769	15,546	288,153	190,590
1684,784	15,584	288,035	190,539
1685,798	15,812	287,847	190,656
1686,813	15,765	287,673	190,471
1687,827	15,602	287,542	190,182
1688,842	15,589	287,420	190,070
1689,857	15,519	287,289	189,887
1690,871	15,626	287,107	189,872
1691,886	15,461	286,933	189,554
1692,900	15,373	286,676	189,268
1693,915	15,371	286,478	189,117
1694,930	15,407	286,376	189,074
1695,944	15,532	286,264	189,124
1696,959	15,474	286,123	188,948
1697,973	15,512	285,965	188,871
1698,988	15,596	285,762	188,814
1700,003	15,605	285,607	188,705
1701,017	15,594	285,424	188,555
1702,032	15,570	285,141	188,325
1703,046	15,635	285,026	188,305
1704,061	15,521	284,972	188,125
1705,076	15,771	284,814	188,284
1706,090	15,667	284,649	188,042
1707,105	15,495	284,492	187,729
1708,119	15,405	284,308	187,491
1709,134	15,640	284,154	187,635
1710,149	15,602	284,053	187,509
1711,163	15,596	283,899	187,384
1712,178	15,690	283,757	187,379
1713,192	15,757	283,670	187,380
1714,207	15,857	283,565	187,404
1715,222	16,017	283,304	187,393
1716,236	15,966	283,086	187,175
1717,251	15,899	282,962	187,003
1718,265	15,820	282,777	186,776
1719,280	15,886	282,598	186,715
1720,295	15,886	282,434	186,590
1721,309	15,943	282,242	186,510
1722,324	15,904	282,127	186,375
1723,338	15,872	281,998	186,237
1724,353	15,778	281,824	186,001
1725,367	15,709	281,649	185,793
1726,382	15,766	281,467	185,720
1727,397	15,541	281,371	185,392
1728,411	15,574	281,212	185,307
1729,426	15,722	281,009	185,320
1730,440	15,696	280,850	185,170
1731,455	15,753	280,678	185,103
1732,470	15,823	280,565	185,089
1733,484	15,719	280,457	184,888
1734,499	15,722	280,298	184,769
1735,513	15,765	280,174	184,719
1736,528	15,895	280,044	184,759
1737,543	15,719	279,752	184,358
1738,557	15,521	279,557	183,996
1739,572	15,679	279,450	184,082
1740,586	15,648	279,281	183,920
1741,601	15,493	279,072	183,597
1742,616	15,394	278,879	183,346
1743,630	15,291	278,766	183,142
1744,645	15,546	278,657	183,333
1745,659	15,703	278,546	183,415
1746,674	15,520	278,392	183,098
1747,689	15,517	278,176	182,936
1748,703	15,468	278,049	182,783
1749,718	15,574	277,978	182,836
1750,732	15,670	277,805	182,810
1751,747	15,792	277,579	182,778
1752,762	15,806	277,462	182,700
1753,776	15,733	277,331	182,518
1754,791	15,638	277,118	182,259
1755,805	15,457	276,906	181,908
1756,820	15,508	276,768	181,856
1757,835	15,682	276,727	182,001
1758,849	15,773	276,597	181,998
1759,864	15,957	276,346	182,015
1760,878	15,794	276,137	181,685
1761,893	15,617	275,971	181,369
1762,908	15,791	275,872	181,475
1763,922	15,886	275,730	181,469
1764,937	15,786	275,508	181,198
1765,951	15,791	275,430	181,137
1766,966	15,949	275,318	181,217
1767,980	15,951	275,086	181,051
1768,995	15,799	274,881	180,737
1770,010	15,805	274,810	180,680
1771,024	15,780	274,668	180,544
1772,039	15,960	274,450	180,578
1773,053	15,987	274,317	180,503
1774,068	15,906	274,150	180,290
1775,083	15,929	274,006	180,204
1776,097	15,855	273,819	179,987
1777,112	15,757	273,649	179,754
1778,126	15,774	273,487	179,650
1779,141	15,723	273,291	179,450
1780,156	15,769	273,178	179,410
1781,170	15,659	273,030	179,180
1782,185	15,629	272,828	178,999
1783,199	15,557	272,661	178,798
1784,214	15,639	272,527	178,781
1785,229	15,703	272,395	178,747
1786,243	15,794	272,187	178,691
1787,258	15,707	272,045	178,489
1788,272	15,737	271,910	178,417
1789,287	15,791	271,745	178,350
1790,302	15,542	271,580	177,963
1791,316	15,628	271,460	177,959
1792,331	15,632	271,355	177,879
1793,345	15,694	271,124	177,777
1794,360	15,573	270,947	177,518
1795,375	15,652	270,818	177,501
1796,389	15,789	270,607	177,491
1797,404	15,512	270,429	177,066
1798,418	15,455	270,277	176,892
1799,433	15,645	270,092	176,954
1800,448	15,599	269,962	176,805
1801,462	15,593	269,830	176,697
1802,477	15,642	269,659	176,621
1803,491	15,565	269,578	176,472
1804,506	15,656	269,479	176,486
1805,520	15,674	269,344	176,401
1806,535	15,517	269,179	176,113
1807,550	15,593	269,006	176,064
1808,564	15,645	268,882	176,022
1809,579	15,695	268,689	175,931
1810,593	15,779	268,490	175,874
1811,608	15,679	268,332	175,650
1812,623	15,783	268,189	175,649
1813,637	15,815	268,015	175,554
1814,652	15,783	267,844	175,393
1815,666	15,627	267,683	175,109
1816,681	15,607	267,506	174,957
1817,696	15,696	267,406	174,969
1818,710	15,992	267,343	175,220
1819,725	15,796	267,194	174,903
1820,739	15,935	267,045	174,934
1821,754	15,789	266,921	174,686
1822,769	16,013	266,740	174,785
1823,783	15,955	266,601	174,618
1824,798	16,063	266,440	174,609
1825,812	15,908	266,294	174,337
1826,827	16,007	266,176	174,347
1827,842	16,044	266,076	174,305
1828,856	15,940	265,932	174,087
1829,871	15,885	265,740	173,890
1830,885	15,863	265,597	173,758
1831,900	15,890	265,470	173,687
1832,915	15,948	265,297	173,618
1833,929	15,862	265,081	173,373
1834,944	16,007	264,967	173,432
1835,958	15,904	264,846	173,232
1836,973	15,998	264,735	173,240
1837,988	16,056	264,619	173,210
1839,002	16,122	264,479	173,170
1840,017	16,150	264,369	173,111
1841,031	16,170	264,229	173,025
1842,046	16,254	264,020	172,958
1843,060	16,128	263,801	172,671
1844,075	15,969	263,657	172,398
1845,090	15,936	263,500	172,247
1846,104	15,978	263,333	172,165
1847,119	16,071	263,216	172,169
1848,133	16,151	263,091	172,154
1849,148	16,004	262,922	171,877
1850,163	15,978	262,758	171,729
1851,177	16,001	262,605	171,637
1852,192	16,167	262,500	171,723
1853,206	16,232	262,369	171,688
1854,221	16,072	262,174	171,382
1855,236	16,269	262,000	171,453
1856,250	16,122	261,844	171,187
1857,265	15,800	261,697	170,749
1858,279	15,702	261,513	170,514
1859,294	15,691	261,371	170,395
1860,309	15,842	261,234	170,444
1861,323	16,022	261,064	170,500
1862,338	15,985	260,961	170,380
1863,352	16,025	260,840	170,327
1864,367	15,982	260,705	170,180
1865,382	16,148	260,597	170,262
1866,396	16,037	260,432	170,027
1867,411	15,960	260,360	169,888
1868,425	16,070	260,217	169,890
1869,440	16,186	259,939	169,810
1870,455	16,051	259,791	169,563
1871,469	16,024	259,633	169,418
1872,484	15,877	259,452	169,136
1873,498	15,852	259,387	169,054
1874,513	16,017	259,256	169,119
1875,528	16,142	258,992	169,057
1876,542	15,969	258,812	168,752
1877,557	15,856	258,757	168,587
1878,571	15,880	258,655	168,531
1879,586	15,878	258,469	168,393
1880,600	15,956	258,272	168,327
1881,615	16,047	258,172	168,338
1882,630	16,094	258,091	168,318
1883,644	15,922	257,858	167,979
1884,659	15,916	257,643	167,818
1885,673	15,867	257,493	167,657
1886,688	15,945	257,317	167,604
1887,703	15,912	257,235	167,503
1888,717	15,879	257,099	167,367
1889,732	15,926	256,865	167,247
1890,746	16,069	256,719	167,279
1891,761	16,131	256,689	167,306
1892,776	16,340	256,660	167,479
1893,790	16,460	256,497	167,477
1894,805	16,297	256,267	167,151
1895,819	16,191	256,120	166,935
1896,834	16,104	255,948	166,723
1897,849	16,177	255,796	166,681
1898,863	16,182	255,668	166,588
1899,878	16,126	255,567	166,452
1900,892	16,266	255,462	166,507
1901,907	16,282	255,239	166,362
1902,922	16,075	255,061	166,028
1903,936	15,995	254,865	165,807
1904,951	16,320	254,733	166,026
1905,965	16,402	254,686	166,061
1906,980	16,219	254,505	165,749
1907,995	16,236	254,431	165,702
1909,009	16,355	254,341	165,746
1910,024	16,418	254,124	165,651
1911,038	16,279	253,976	165,405
1912,053	16,339	253,896	165,396
1913,068	16,355	253,815	165,345
1914,082	16,274	253,645	165,141
1915,097	16,472	253,543	165,253
1916,111	16,434	253,361	165,083
1917,126	16,391	253,116	164,866
1918,141	16,348	253,000	164,734
1919,155	16,407	252,917	164,723
1920,170	16,421	252,776	164,630
1921,184	16,627	252,658	164,739
1922,199	16,609	252,598	164,669
1923,213	16,610	252,486	164,581
1924,228	16,458	252,351	164,332
1925,243	16,539	252,237	164,321
1926,257	16,734	252,022	164,356
1927,272	16,732	251,810	164,201
1928,286	16,685	251,730	164,089
1929,301	16,644	251,643	163,977
1930,316	16,647	251,501	163,874
1931,330	16,539	251,349	163,656
1932,345	16,734	251,216	163,744
1933,359	16,837	251,151	163,786
1934,374	16,558	251,033	163,424
1935,389	16,554	250,797	163,253
1936,403	16,865	250,662	163,450
1937,418	16,752	250,558	163,259
1938,432	16,559	250,391	162,950
1939,447	16,700	250,286	163,003
1940,462	16,804	250,273	163,081
1941,476	17,019	250,062	163,135
1942,491	16,880	249,835	162,839
1943,505	16,700	249,786	162,620
1944,520	16,789	249,690	162,629
1945,535	16,768	249,539	162,495
1946,549	16,865	249,385	162,475
1947,564	16,856	249,249	162,362
1948,578	17,135	249,085	162,508
1949,593	16,918	248,939	162,191
1950,608	16,701	248,805	161,881
1951,622	16,936	248,651	161,992
1952,637	17,064	248,603	162,069
1953,651	16,971	248,521	161,911
1954,666	16,938	248,325	161,738
1955,681	17,113	248,145	161,774
1956,695	17,088	248,006	161,645
1957,710	16,989	247,847	161,433
1958,724	17,156	247,755	161,517
1959,739	17,059	247,669	161,355
1960,753	17,167	247,551	161,367
1961,768	17,203	247,436	161,311
1962,783	17,112	247,412	161,195
1963,797	17,183	247,294	161,171
1964,812	17,290	247,123	161,147
1965,826	17,309	247,001	161,071
1966,841	17,301	246,792	160,913
1967,856	17,421	246,641	160,914
1968,870	17,429	246,589	160,873
1969,885	17,082	246,403	160,410
1970,899	17,219	246,245	160,422
1971,914	17,310	246,162	160,440
1972,929	17,178	245,981	160,183
1973,943	17,028	245,891	159,969
1974,958	17,522	245,972	160,473
1975,972	18,326	246,079	161,287
1976,987	19,199	246,186	162,164
1978,002	19,591	246,091	162,457
1979,016	19,566	246,023	162,373
1980,031	19,773	246,066	162,582
1981,045	19,917	245,938	162,619
1982,060	19,771	245,767	162,355
1983,075	19,522	245,497	161,928
1984,089	18,900	245,152	161,104
1985,104	18,430	244,972	160,530
1986,118	18,916	244,913	160,933
1987,133	19,040	244,804	160,962
1988,148	18,659	244,647	160,489
1989,162	18,625	244,483	160,336
1990,177	18,616	244,242	160,155
1991,191	18,559	244,055	159,965
1992,206	18,598	243,926	159,902
1993,221	18,546	243,803	159,759
1994,235	18,576	243,734	159,728
1995,250	18,589	243,653	159,672
1996,264	18,586	243,426	159,507
1997,279	18,635	243,267	159,434
1998,293	18,658	243,100	159,332
1999,308	18,780	242,943	159,328
2000,323	18,703	242,805	159,153
2001,337	18,568	242,709	158,950
2002,352	18,538	242,619	158,849
2003,366	18,755	242,402	158,894
2004,381	19,210	241,499	158,707
2005,396	19,339	239,856	157,732
2006,410	18,902	238,700	156,559
2007,425	18,707	238,278	156,092
2008,439	18,671	238,147	155,959
2009,454	18,565	238,079	155,804
2010,469	18,771	237,955	155,897
2011,483	18,730	237,856	155,781
2012,498	18,661	237,725	155,620
2013,512	18,630	237,608	155,500
2014,527	18,685	237,484	155,455
2015,542	18,635	237,304	155,279
2016,556	18,650	237,177	155,195
2017,571	18,570	236,982	154,981
2018,585	18,651	236,801	154,923
2019,600	18,544	236,609	154,687
2020,615	18,762	236,282	154,656
2021,629	18,711	235,964	154,388
2022,644	18,885	235,801	154,424
2023,658	19,136	235,593	154,499
2024,673	18,825	235,292	154,010
2025,688	18,561	235,045	153,599
2026,702	18,899	234,983	153,847
2027,717	19,447	234,912	154,276
2028,731	20,011	234,748	154,659
2029,746	20,266	234,684	154,831
2030,761	19,829	234,432	154,261
2031,775	19,637	234,222	153,938
2032,790	19,628	234,155	153,872
2033,804	19,195	233,929	153,325
2034,819	18,343	233,653	152,372
2035,834	17,604	233,371	151,518
2036,848	17,158	233,164	150,974
2037,863	17,325	233,117	151,078
2038,877	17,345	233,017	151,019
2039,892	17,294	232,900	150,884
2040,906	17,352	232,872	150,904
2041,921	17,431	232,779	150,900
2042,936	17,408	232,680	150,802
2043,950	17,402	232,644	150,761
2044,965	17,416	232,619	150,744
2045,979	17,305	232,505	150,558
2046,994	17,426	232,324	150,534
2048,009	17,143	232,221	150,205
2049,023	17,071	232,105	150,052
2050,038	17,133	231,958	149,998
2051,052	17,129	231,805	149,883
2052,067	17,041	231,692	149,719
2053,082	17,017	231,546	149,590
2054,096	17,188	231,384	149,623
2055,111	17,133	231,263	149,483
2056,125	17,058	231,040	149,259
2057,140	17,045	230,837	149,104
2058,155	17,346	230,546	149,167
2059,169	16,954	230,240	148,612
2060,184	16,817	230,028	148,342
2061,198	17,137	229,787	148,453
2062,213	17,002	229,546	148,166
2063,228	16,812	229,283	147,818
2064,242	16,867	229,069	147,715
2065,257	16,875	228,892	147,595
2066,271	16,817	228,623	147,358
2067,286	16,762	228,426	147,170
2068,301	16,804	228,349	147,144
2069,315	17,073	228,217	147,279
2070,330	17,056	228,017	147,123
2071,344	16,684	227,895	146,708
2072,359	16,690	227,946	146,734
2073,374	16,807	227,998	146,856
2074,388	16,727	227,973	146,757
2075,403	16,588	227,890	146,570
2076,417	16,844	227,859	146,758
2077,432	16,782	227,836	146,677
2078,446	16,691	227,693	146,493
2079,461	16,587	227,661	146,370
2080,476	16,535	227,669	146,317
2081,490	16,623	227,520	146,284
2082,505	16,635	227,487	146,261
2083,519	16,777	227,436	146,338
2084,534	16,990	227,236	146,380
2085,549	16,846	227,014	146,099
2086,563	16,721	226,883	145,895
2087,578	16,677	226,798	145,789
2088,592	16,651	226,698	145,690
2089,607	16,521	226,533	145,459
2090,622	16,484	226,367	145,308
2091,636	16,547	226,112	145,185
2092,651	16,356	225,958	144,909
2093,665	16,588	225,847	145,025
2094,680	16,478	225,615	144,769
2095,695	16,366	225,357	144,495
2096,709	16,497	225,183	144,482
2097,724	16,574	224,990	144,411
2098,738	16,378	224,735	144,067
2099,753	16,366	224,447	143,860
2100,768	16,353	224,228	143,696
2101,782	16,543	224,003	143,701
2102,797	16,404	223,856	143,476
2103,811	16,372	223,741	143,362
2104,826	16,512	223,614	143,386
2105,841	16,240	223,426	143,022
2106,855	16,191	223,245	142,853
2107,870	16,333	223,126	142,884
2108,884	16,363	223,084	142,870
2109,899	16,329	223,021	142,789
2110,914	16,309	223,006	142,749
2111,928	16,201	223,111	142,712
2112,943	16,271	223,072	142,734
2113,957	16,168	222,972	142,571
2114,972	16,263	223,005	142,659
2115,986	16,363	222,976	142,712
2117,001	16,654	222,917	142,907
2118,016	16,432	222,893	142,693
2119,030	16,112	222,810	142,357
2120,045	15,963	222,685	142,139
2121,059	15,887	222,581	141,995
2122,074	16,089	222,469	142,081
2123,089	16,125	222,320	142,004
2124,103	16,021	222,193	141,823
2125,118	15,923	221,982	141,593
2126,132	15,995	221,786	141,516
2127,147	16,202	221,611	141,566
2128,162	16,267	221,498	141,535
2129,176	16,072	221,291	141,226
2130,191	16,054	221,075	141,062
2131,205	15,978	220,930	140,893
2132,220	16,068	220,682	140,797
2133,235	16,138	220,450	140,696
2134,249	16,085	220,279	140,530
2135,264	16,164	220,108	140,474
2136,278	16,047	219,877	140,217
2137,293	15,758	219,672	139,833
2138,308	15,953	219,458	139,847
2139,322	16,095	219,345	139,880
2140,337	16,177	219,246	139,873
2141,351	16,213	219,101	139,798
2142,366	16,262	218,875	139,682
2143,381	16,249	218,748	139,577
2144,395	16,201	218,695	139,492
2145,410	16,289	218,680	139,543
2146,424	16,127	218,597	139,344
2147,439	16,188	218,474	139,303
2148,454	16,143	218,380	139,194
2149,468	16,134	218,376	139,172
2150,483	15,870	218,375	138,941
2151,497	15,876	218,301	138,886
2152,512	15,843	218,214	138,792
2153,526	16,054	218,235	138,967
2154,541	16,267	218,278	139,157
2155,556	16,264	218,248	139,123
2156,570	16,264	218,183	139,070
2157,585	16,345	218,113	139,079
2158,599	16,361	217,962	138,984
2159,614	16,027	217,832	138,614
2160,629	15,976	217,751	138,508
2161,643	16,199	217,624	138,598
2162,658	16,347	217,473	138,612
2163,672	16,195	217,250	138,333
2164,687	16,157	216,936	138,090
2165,702	15,950	216,687	137,750
2166,716	16,089	216,461	137,707
2167,731	16,295	216,303	137,762
2168,745	16,353	216,137	137,691
2169,760	16,268	215,964	137,500
2170,775	16,368	215,754	137,435
2171,789	16,246	215,505	137,165
2172,804	16,216	215,251	136,967
2173,818	16,268	215,039	136,863
2174,833	16,219	214,887	136,714
2175,848	16,092	214,733	136,501
2176,862	16,078	214,717	136,468
2177,877	16,160	214,651	136,480
2178,891	16,193	214,438	136,359
2179,906	15,962	214,352	136,106
2180,921	16,068	214,325	136,162
2181,935	16,175	214,264	136,198
2182,950	16,152	214,153	136,096
2183,964	16,039	214,068	135,940
2184,979	16,048	213,954	135,862
2185,994	16,156	213,870	135,883
2187,008	15,952	213,817	135,674
2188,023	16,193	213,734	135,803
2189,037	16,011	213,710	135,630
2190,052	15,912	213,693	135,527
2191,067	15,985	213,699	135,577
2192,081	16,055	213,610	135,566
2193,096	15,988	213,484	135,419
2194,110	15,787	213,419	135,205
2195,125	15,871	213,305	135,188
2196,139	15,914	213,206	135,148
2197,154	15,902	213,120	135,072
2198,169	16,026	213,030	135,102
2199,183	15,744	212,889	134,775
2200,198	15,953	212,704	134,814
2201,212	15,919	212,507	134,649
2202,227	16,009	212,297	134,576
2203,242	15,818	212,045	134,252
2204,256	15,764	211,835	134,064
2205,271	16,071	211,694	134,208
2206,285	16,005	211,496	134,017
2207,300	15,844	211,277	133,739
2208,315	15,774	211,045	133,525
2209,329	15,913	210,848	133,498
2210,344	15,899	210,699	133,381
2211,358	15,808	210,468	133,152
2212,373	15,661	210,330	132,936
2213,388	15,709	210,265	132,921
2214,402	15,959	210,180	133,053
2215,417	15,829	210,076	132,873
2216,431	15,784	210,115	132,850
2217,446	15,721	210,108	132,784
2218,461	15,774	210,006	132,750
2219,475	15,765	209,909	132,670
2220,490	15,823	209,790	132,628
2221,504	16,056	209,845	132,835
2222,519	15,856	209,801	132,638
2223,534	16,029	209,646	132,665
2224,548	15,953	209,641	132,590
2225,563	15,889	209,604	132,504
2226,577	15,813	209,546	132,396
2227,592	15,843	209,474	132,363
2228,607	15,784	209,372	132,239
2229,621	15,885	209,260	132,236
2230,636	15,934	209,202	132,227
2231,650	15,871	209,102	132,103
2232,665	15,981	208,945	132,077
2233,679	16,159	208,853	132,148
2234,694	16,139	208,818	132,098
2235,709	16,082	208,622	131,918
2236,723	16,198	208,468	131,900
2237,738	16,126	208,407	131,793
2238,752	16,061	208,222	131,613
2239,767	16,087	208,015	131,491
2240,782	16,072	207,801	131,333
2241,796	15,938	207,546	131,056
2242,811	16,141	207,343	131,074
2243,825	16,014	207,124	130,825
2244,840	16,106	206,909	130,749
2245,855	15,950	206,732	130,504
2246,869	16,246	206,554	130,610
2247,884	16,038	206,356	130,312
2248,898	15,931	206,240	130,145
2249,913	16,102	206,129	130,195
2250,928	16,144	206,029	130,153
2251,942	16,095	205,865	130,000
2252,957	15,745	205,690	129,608
2253,971	15,650	205,592	129,462
2254,986	15,704	205,654	129,531
2256,001	15,734	205,749	129,603
2257,015	15,791	205,696	129,602
2258,030	15,883	205,595	129,597
2259,044	16,136	205,530	129,739
2260,059	15,844	205,544	129,513
2261,074	15,860	205,477	129,471
2262,088	15,668	205,403	129,265
2263,103	15,550	205,339	129,123
2264,117	15,803	205,294	129,278
2265,132	15,988	205,176	129,334
2266,147	15,694	205,005	128,989
2267,161	15,532	204,927	128,805
2268,176	15,619	204,778	128,765
2269,190	15,755	204,669	128,790
2270,205	15,859	204,603	128,817
2271,219	15,847	204,448	128,699
2272,234	15,807	204,295	128,560
2273,249	15,944	204,261	128,632
2274,263	16,032	204,061	128,562
2275,278	16,159	203,830	128,502
2276,292	15,876	203,671	128,175
2277,307	16,035	203,499	128,176
2278,322	16,005	203,298	128,016
2279,336	15,973	203,054	127,826
2280,351	15,902	202,798	127,600
2281,365	15,827	202,588	127,400
2282,380	15,634	202,433	127,144
2283,395	15,740	202,297	127,128
2284,409	15,929	202,111	127,143
2285,424	16,017	201,940	127,091
2286,438	15,954	201,860	126,981
2287,453	15,981	201,778	126,939
2288,468	15,967	201,666	126,847
2289,482	16,042	201,529	126,806
2290,497	16,097	201,418	126,766
2291,511	16,131	201,333	126,727
2292,526	16,120	201,312	126,694
2293,541	16,110	201,347	126,698
2294,555	16,126	201,439	126,757
2295,570	16,312	201,425	126,876
2296,584	16,186	201,291	126,686
2297,599	15,894	201,267	126,441
2298,614	15,924	201,139	126,371
2299,628	15,959	201,082	126,350
2300,643	15,908	201,068	126,292
2301,657	15,875	200,981	126,201
2302,672	15,743	200,885	126,031
2303,687	15,963	200,787	126,123
2304,701	15,930	200,722	126,047
2305,716	15,744	200,680	125,870
2306,730	15,765	200,453	125,732
2307,745	15,766	200,233	125,584
2308,760	15,883	200,102	125,577
2309,774	15,880	199,958	125,474
2310,789	15,909	199,791	125,380
2311,803	15,680	199,682	125,130
2312,818	15,719	199,484	125,023
2313,832	15,865	199,313	125,014
2314,847	15,846	199,105	124,858
2315,862	15,628	198,918	124,568
2316,876	15,538	198,670	124,336
2317,891	15,803	198,520	124,427
2318,905	15,691	198,459	124,295
2319,920	15,810	198,227	124,226
2320,935	15,743	198,104	124,089
2321,949	15,810	197,993	124,057
2322,964	15,893	197,890	124,043
2323,978	15,947	197,756	123,988
2324,993	16,177	197,617	124,059
2326,008	15,919	197,466	123,764
2327,022	15,797	197,463	123,661
2328,037	15,831	197,451	123,668
2329,051	15,903	197,341	123,641
2330,066	15,925	197,245	123,586
2331,081	15,954	197,208	123,573
2332,095	15,902	197,148	123,486
2333,110	15,929	197,178	123,514
2334,124	15,897	197,175	123,477
2335,139	16,068	197,068	123,525
2336,154	16,037	197,086	123,502
2337,168	16,048	197,058	123,482
2338,183	16,195	196,958	123,517
2339,197	16,129	196,908	123,425
2340,212	16,222	196,845	123,443
2341,227	16,207	196,761	123,369
2342,241	16,150	196,677	123,264
2343,256	16,249	196,606	123,280
2344,270	16,192	196,429	123,117
2345,285	16,164	196,305	123,008
2346,300	16,232	196,023	122,869
2347,314	16,170	195,712	122,619
2348,329	16,183	195,601	122,548
2349,343	16,132	195,443	122,401
2350,358	16,061	195,285	122,240
2351,372	16,124	195,093	122,155
2352,387	15,980	194,881	121,907
2353,402	16,014	194,760	121,845
2354,416	16,278	194,547	121,891
2355,431	16,324	194,406	121,825
2356,445	16,266	194,231	121,663
2357,460	16,210	194,114	121,539
2358,475	16,141	194,056	121,442
2359,489	16,278	194,016	121,504
2360,504	16,346	193,929	121,488
2361,518	16,263	193,788	121,330
2362,533	16,313	193,654	121,271
2363,548	16,227	193,611	121,172
2364,562	16,308	193,586	121,203
2365,577	16,296	193,437	121,091
2366,591	16,136	193,333	120,900
2367,606	16,130	193,253	120,835
2368,621	16,150	193,201	120,807
2369,635	15,992	193,114	120,628
2370,650	16,175	193,089	120,733
2371,664	16,295	193,127	120,832
2372,679	16,192	193,152	120,763
2373,694	16,135	193,042	120,643
2374,708	16,203	192,976	120,640
2375,723	16,181	192,964	120,606
2376,737	16,079	192,857	120,455
2377,752	15,941	192,742	120,274
2378,767	16,041	192,627	120,263
2379,781	16,166	192,550	120,294
2380,796	16,196	192,560	120,311
2381,810	16,241	192,414	120,240
2382,825	16,284	192,222	120,141
2383,840	16,354	192,068	120,084
2384,854	16,251	191,855	119,867
2385,869	16,239	191,616	119,698
2386,883	16,160	191,421	119,510
2387,898	16,111	191,230	119,346
2388,912	16,200	191,090	119,310
2389,927	16,214	190,843	119,156
2390,942	16,129	190,621	118,946
2391,956	16,049	190,521	118,817
2392,971	16,002	190,426	118,714
2393,985	16,135	190,181	118,644
2395,000	15,974	190,002	118,409
2396,015	15,824	189,915	118,239
2397,029	15,805	189,876	118,191
2398,044	16,271	189,907	118,527
2399,058	16,202	189,907	118,468
2400,073	16,050	189,897	118,344
2401,088	16,190	189,889	118,428
2402,102	16,030	189,863	118,289
2403,117	15,980	189,761	118,180
2404,131	16,320	189,671	118,351
2405,146	16,212	189,644	118,249
2406,161	16,175	189,560	118,160
2407,175	16,275	189,471	118,164
2408,190	16,315	189,469	118,180
2409,204	16,229	189,366	118,045
2410,219	16,297	189,267	118,020
2411,234	16,288	189,241	117,988
2412,248	16,350	189,134	117,954
2413,263	16,530	188,937	117,946
2414,277	16,333	188,884	117,765
2415,292	16,228	188,865	117,670
2416,307	16,248	188,731	117,590
2417,321	16,456	188,700	117,705
2418,336	16,573	188,644	117,740
2419,350	16,353	188,449	117,455
2420,365	16,418	188,282	117,386
2421,380	16,684	188,182	117,498
2422,394	16,611	188,031	117,343
2423,409	16,550	187,809	117,152
2424,423	16,607	187,611	117,057
2425,438	16,583	187,303	116,839
2426,452	16,425	187,118	116,604
2427,467	16,324	186,919	116,399
2428,482	16,409	186,803	116,375
2429,496	16,572	186,657	116,386
2430,511	16,541	186,481	116,245
2431,525	16,545	186,366	116,166
2432,540	16,426	186,202	115,972
2433,555	16,515	186,135	115,981
2434,569	16,652	186,054	116,014
2435,584	16,931	185,965	116,140
2436,598	16,838	185,960	116,063
2437,613	16,503	185,949	115,816
2438,628	16,512	185,869	115,762
2439,642	16,586	185,899	115,821
2440,657	16,441	185,881	115,700
2441,671	16,737	185,829	115,861
2442,686	16,922	185,807	115,962
2443,701	16,966	185,692	115,911
2444,715	16,702	185,722	115,739
2445,730	17,016	185,724	115,944
2446,744	17,052	185,588	115,874
2447,759	17,032	185,522	115,808
2448,774	16,948	185,446	115,694
2449,788	16,864	185,356	115,570
2450,803	16,983	185,212	115,551
2451,817	16,928	185,131	115,453
2452,832	17,104	185,047	115,510
2453,847	16,914	184,909	115,285
2454,861	16,827	184,728	115,103
2455,876	16,967	184,656	115,142
2456,890	16,889	184,552	115,015
2457,905	16,729	184,451	114,833
2458,920	16,768	184,365	114,796
2459,934	16,894	184,270	114,811
2460,949	17,185	184,078	114,879
2461,963	17,032	183,889	114,647
2462,978	16,973	183,684	114,469
2463,993	16,957	183,551	114,365
2465,007	17,094	183,399	114,353
2466,022	17,097	183,190	114,214
2467,036	17,068	182,976	114,052
2468,051	17,002	182,881	113,938
2469,065	17,085	182,778	113,919
2470,080	17,143	182,593	113,833
2471,095	16,943	182,516	113,641
2472,109	17,027	182,474	113,661
2473,124	17,108	182,425	113,675
2474,138	17,320	182,231	113,685
2475,153	17,316	182,175	113,638
2476,168	17,187	182,162	113,533
2477,182	17,130	182,149	113,477
2478,197	17,168	182,183	113,513
2479,211	17,362	182,190	113,637
2480,226	17,381	182,155	113,619
2481,241	17,239	182,225	113,557
2482,255	17,291	182,253	113,599
2483,270	17,308	182,193	113,563
2484,284	17,180	182,091	113,404
2485,299	17,292	182,044	113,440
2486,314	17,218	182,016	113,363
2487,328	17,361	181,922	113,389
2488,343	17,690	181,744	113,487
2489,357	17,594	181,500	113,261
2490,372	16,841	181,207	112,568
2491,387	16,344	181,130	112,181
2492,401	17,024	181,124	112,618
2493,416	17,145	181,034	112,632
2494,430	17,311	180,985	112,702
2495,445	18,165	181,104	113,332
2496,460	19,018	181,166	113,926
2497,474	19,561	181,027	114,188
2498,489	19,700	180,890	114,184
2499,503	19,918	180,780	114,248
2500,518	20,306	180,710	114,450
2501,533	20,085	180,531	114,180
2502,547	19,691	180,188	113,694
2503,562	19,406	179,946	113,344
2504,576	18,680	179,743	112,729
2505,591	18,912	179,635	112,804
2506,605	19,360	179,574	113,050
2507,620	19,226	179,495	112,902
2508,635	19,141	179,330	112,732
2509,649	18,802	179,257	112,455
2510,664	18,702	179,143	112,308
2511,678	18,801	179,082	112,325
2512,693	18,798	178,975	112,245
2513,708	18,788	178,942	112,209
2514,722	18,823	178,939	112,220
2515,737	18,690	178,969	112,141
2516,751	18,855	178,954	112,230
2517,766	18,855	178,927	112,203
2518,781	18,813	178,872	112,131
2519,795	18,803	178,817	112,080
2520,810	18,609	178,816	111,943
2521,824	18,744	178,719	111,960
2522,839	18,692	178,524	111,795
2523,854	19,565	177,513	111,716
2524,868	20,168	174,878	110,433
2525,883	19,561	172,456	108,513
2526,897	19,414	171,433	107,767
2527,912	19,189	171,206	107,475
2528,927	19,109	171,082	107,337
2529,941	19,029	170,865	107,142
2530,956	19,141	170,695	107,096
2531,970	19,034	170,510	106,903
2532,985	19,231	170,388	106,940
2534,000	19,086	170,279	106,772
2535,014	19,355	170,111	106,824
2536,029	18,678	169,752	106,170
2537,043	17,429	169,449	105,200
2538,058	16,925	169,198	104,723
2539,073	16,401	169,152	104,362
2540,087	16,937	169,121	104,665
2541,102	17,379	169,069	104,896
2542,116	17,720	169,081	105,104
2543,131	18,304	169,072	105,449
2544,145	18,758	169,054	105,708
2545,160	18,570	168,892	105,482
2546,175	18,124	168,569	104,997
2547,189	17,479	168,392	104,482
2548,204	17,369	168,355	104,382
2549,218	18,195	168,385	104,898
2550,233	18,855	168,353	105,274
2551,248	18,972	168,360	105,340
2552,262	19,072	168,120	105,242
2553,277	18,782	167,956	104,953
2554,291	18,421	167,863	104,665
2555,306	18,671	167,836	104,791
2556,321	19,075	167,845	105,034
2557,335	19,610	167,900	105,386
2558,350	20,006	167,991	105,675
2559,364	20,918	168,011	106,235
2560,379	21,939	168,040	106,866
2561,394	22,151	168,037	106,984
2562,408	21,572	167,774	106,454
2563,423	20,825	167,454	105,789
2564,437	19,921	167,155	105,042
2565,452	18,951	166,786	104,213
2566,467	17,985	166,480	103,429
2567,481	17,494	166,300	103,011
2568,496	17,296	166,243	102,846
2569,510	17,216	166,199	102,761
2570,525	17,755	166,207	103,083
2571,540	18,497	166,172	103,501
2572,554	18,661	166,060	103,521
2573,569	18,119	165,885	103,076
2574,583	17,495	165,734	102,597
2575,598	17,378	165,589	102,428
2576,613	17,209	165,448	102,229
2577,627	17,381	165,334	102,254
2578,642	17,110	165,200	101,999
2579,656	17,225	165,171	102,041
2580,671	17,390	165,121	102,100
2581,685	17,285	165,040	101,977
2582,700	17,621	165,038	102,169
2583,715	18,255	164,983	102,506
2584,729	18,523	164,946	102,634
2585,744	18,528	164,964	102,639
2586,758	18,609	164,785	102,567
2587,773	18,496	164,727	102,454
2588,788	18,488	164,602	102,363
2589,802	18,374	164,586	102,276
2590,817	18,445	164,406	102,197
2591,831	18,734	164,244	102,260
2592,846	18,479	164,168	102,052
2593,861	18,441	164,075	101,962
2594,875	18,650	164,014	102,040
2595,890	18,730	163,838	101,969
2596,904	18,704	163,634	101,817
2597,919	18,663	163,289	101,569
2598,934	18,616	162,961	101,328
2599,948	18,626	162,668	101,144
2600,963	18,684	162,490	101,057
2601,977	18,459	162,422	100,874
2602,992	18,639	162,307	100,900
2604,007	18,652	162,195	100,828
2605,021	18,604	162,034	100,691
2606,036	18,587	161,919	100,601
2607,050	18,722	161,833	100,618
2608,065	18,807	161,764	100,616
2609,080	18,626	161,621	100,413
2610,094	18,733	161,518	100,402
2611,109	18,768	161,415	100,350
2612,123	18,638	161,329	100,211
2613,138	18,721	161,203	100,173
2614,153	18,670	161,134	100,091
2615,167	18,659	161,012	100,000
2616,182	18,576	160,808	99,816
2617,196	18,052	160,606	99,377
2618,211	17,841	160,468	99,160
2619,226	18,118	160,427	99,287
2620,240	18,389	160,323	99,371
2621,255	18,667	160,277	99,496
2622,269	18,553	160,226	99,389
2623,284	18,457	160,075	99,231
2624,298	18,317	159,913	99,041
2625,313	17,694	159,832	98,621
2626,328	17,359	159,635	98,297
2627,342	16,950	159,424	97,922
2628,357	16,928	159,335	97,846
2629,371	17,825	159,374	98,380
2630,386	18,370	159,339	98,663
2631,401	18,730	159,300	98,837
2632,415	18,154	159,172	98,418
2633,430	18,172	159,054	98,347
2634,444	18,177	158,940	98,270
2635,459	18,122	158,928	98,222
2636,474	18,279	158,847	98,254
2637,488	18,287	158,746	98,187
2638,503	18,353	158,569	98,107
2639,517	18,184	158,495	97,956
2640,532	18,062	158,371	97,800
2641,547	18,173	158,333	97,832
2642,561	18,411	158,277	97,925
2643,576	18,458	158,228	97,913
2644,590	18,499	158,094	97,844
2645,605	18,450	157,959	97,724
2646,620	18,526	157,960	97,759
2647,634	18,675	157,785	97,727
2648,649	18,538	157,656	97,561
2649,663	17,966	157,519	97,143
2650,678	18,142	157,408	97,165
2651,693	17,934	157,275	96,956
2652,707	17,880	157,192	96,866
2653,722	18,175	157,130	96,987
2654,736	18,227	157,064	96,967
2655,751	18,060	156,867	96,742
2656,766	17,965	156,753	96,610
2657,780	17,656	156,805	96,458
2658,795	17,688	156,645	96,369
2659,809	17,859	156,531	96,387
2660,824	17,800	156,444	96,292
2661,838	17,733	156,263	96,134
2662,853	17,290	156,211	95,844
2663,868	17,325	156,108	95,792
2664,882	17,439	156,010	95,787
2665,897	17,681	155,921	95,860
2666,911	17,546	155,932	95,783
2667,926	17,747	155,919	95,880
2668,941	18,139	155,736	95,978
2669,955	17,720	155,567	95,631
2670,970	17,325	155,456	95,333
2671,984	17,427	155,417	95,357
2672,999	17,360	155,376	95,287
2674,014	17,481	155,225	95,253
2675,028	17,414	155,076	95,116
2676,043	17,175	154,918	94,877
2677,057	17,086	154,887	94,800
2678,072	16,994	154,831	94,706
2679,087	16,906	154,762	94,606
2680,101	17,161	154,678	94,689
2681,116	17,474	154,564	94,785
2682,130	17,269	154,511	94,630
2683,145	17,493	154,425	94,693
2684,160	17,451	154,278	94,572
2685,174	17,238	154,184	94,387
2686,189	17,011	154,064	94,180
2687,203	17,361	153,979	94,313
2688,218	17,453	153,833	94,267
2689,233	17,131	153,768	94,040
2690,247	17,077	153,745	93,988
2691,262	17,330	153,642	94,056
2692,276	17,467	153,540	94,061
2693,291	17,441	153,409	93,959
2694,306	17,386	153,292	93,848
2695,320	17,058	153,262	93,641
2696,335	17,006	153,125	93,519
2697,349	17,265	153,158	93,674
2698,364	17,193	153,047	93,559
2699,378	17,215	152,905	93,476
2700,393	17,296	152,787	93,440
2701,408	17,369	152,714	93,427
2702,422	17,403	152,516	93,316
2703,437	17,131	152,387	93,080
2704,451	17,021	152,397	93,018
2705,466	17,069	152,427	93,054
2706,481	17,147	152,340	93,036
2707,495	17,406	152,209	93,089
2708,510	17,359	152,101	92,989
2709,524	17,457	151,998	92,971
2710,539	17,236	151,940	92,806
2711,554	16,959	151,763	92,539
2712,568	17,080	151,747	92,587
2713,583	17,425	151,725	92,754
2714,597	17,217	151,593	92,552
2715,612	17,352	151,477	92,546
2716,627	17,106	151,332	92,316
2717,641	16,643	151,234	91,996
2718,656	16,665	151,262	92,017
2719,670	17,120	151,179	92,205
2720,685	17,339	151,082	92,257
2721,700	17,115	150,969	92,058
2722,714	16,710	150,873	91,772
2723,729	17,029	150,752	91,863
2724,743	17,100	150,559	91,776
2725,758	17,028	150,555	91,727
2726,773	16,975	150,547	91,685
2727,787	17,329	150,415	91,787
2728,802	17,140	150,325	91,622
2729,816	17,264	150,261	91,642
2730,831	17,042	150,103	91,418
2731,846	16,919	149,956	91,254
2732,860	17,235	149,882	91,371
2733,875	17,089	149,935	91,317
2734,889	17,241	149,845	91,335
2735,904	17,134	149,696	91,179
2736,919	17,062	149,564	91,052
2737,933	16,725	149,417	90,774
2738,948	16,655	149,386	90,710
2739,962	16,710	149,256	90,652
2740,977	16,673	149,153	90,561
2741,991	16,716	149,008	90,489
2743,006	16,542	148,955	90,356
2744,021	16,534	148,847	90,278
2745,035	16,455	148,768	90,180
2746,050	16,486	148,767	90,188
2747,064	16,577	148,734	90,208
2748,079	16,723	148,549	90,166
2749,094	16,360	148,448	89,903
2750,108	16,313	148,372	89,824
2751,123	16,216	148,339	89,744
2752,137	16,571	148,155	89,814
2753,152	16,852	148,040	89,885
2754,167	16,292	148,025	89,571
2755,181	16,321	147,964	89,542
2756,196	16,695	147,852	89,664
2757,210	16,441	147,789	89,484
2758,225	16,432	147,757	89,451
2759,240	16,685	147,644	89,509
2760,254	16,586	147,519	89,373
2761,269	16,500	147,395	89,245
2762,283	16,327	147,400	89,149
2763,298	16,215	147,271	89,003
2764,313	16,355	147,108	88,971
2765,327	16,292	147,162	88,962
2766,342	16,420	147,022	88,937
2767,356	16,622	146,935	88,983
2768,371	16,563	146,826	88,878
2769,386	16,498	146,724	88,775
2770,400	16,303	146,615	88,599
2771,415	16,357	146,618	88,621
2772,429	16,272	146,549	88,526
2773,444	16,269	146,420	88,439
2774,459	16,368	146,251	88,381
2775,473	16,537	146,163	88,409
2776,488	16,697	146,146	88,474
2777,502	16,574	146,073	88,358
2778,517	16,412	146,012	88,229
2779,531	16,492	145,874	88,179
2780,546	16,558	145,781	88,150
2781,561	16,523	145,680	88,062
2782,575	16,426	145,634	87,976
2783,590	16,629	145,479	87,980
2784,604	16,500	145,542	87,944
2785,619	16,566	145,433	87,904
2786,634	16,460	145,306	87,764
2787,648	16,681	145,246	87,835
2788,663	16,471	145,092	87,625
2789,677	16,659	144,979	87,647
2790,692	16,635	144,923	87,593
2791,707	16,548	144,924	87,540
2792,721	16,437	144,856	87,434
2793,736	16,612	144,770	87,465
2794,750	16,805	144,777	87,561
2795,765	17,076	144,591	87,581
2796,780	17,006	144,594	87,539
2797,794	16,855	144,515	87,406
2798,809	17,005	144,432	87,425
2799,823	17,109	144,391	87,446
2800,838	17,026	144,307	87,345
2801,853	16,772	144,241	87,166
2802,867	16,564	144,184	87,017
2803,882	16,541	143,929	86,843
2804,896	16,528	143,936	86,833
2805,911	16,417	143,945	86,774
2806,926	16,716	143,778	86,819
2807,940	16,874	143,706	86,849
2808,955	16,961	143,676	86,868
2809,969	16,926	143,590	86,790
2810,984	16,829	143,487	86,670
2811,999	16,781	143,424	86,601
2813,013	16,744	143,355	86,532
2814,028	17,068	143,274	86,641
2815,042	16,934	143,152	86,491
2816,057	16,635	143,121	86,313
2817,071	16,781	143,029	86,324
2818,086	16,913	142,991	86,361
2819,101	16,846	142,856	86,237
2820,115	16,836	142,733	86,150
2821,130	16,752	142,629	86,037
2822,144	16,733	142,540	85,966
2823,159	16,908	142,433	85,982
2824,174	16,927	142,331	85,923
2825,188	16,942	142,217	85,855
2826,203	16,781	142,129	85,712
2827,217	16,797	142,132	85,714
2828,232	16,625	142,037	85,562
2829,247	16,784	142,003	85,615
2830,261	16,790	141,947	85,576
2831,276	16,999	141,878	85,633
2832,290	16,584	141,774	85,353
2833,305	16,814	141,662	85,394
2834,320	16,852	141,641	85,393
2835,334	17,259	141,525	85,521
2836,349	16,951	141,409	85,288
2837,363	16,831	141,339	85,178
2838,378	16,639	141,289	85,043
2839,393	17,073	141,180	85,188
2840,407	16,874	141,041	84,997
2841,422	17,061	141,030	85,076
2842,436	16,764	140,943	84,868
2843,451	16,753	140,795	84,766
2844,466	16,854	140,697	84,750
2845,480	16,589	140,564	84,530
2846,495	16,562	140,543	84,496
2847,509	16,538	140,422	84,404
2848,524	16,483	140,361	84,333
2849,539	16,917	140,287	84,497
2850,553	16,978	140,227	84,484
2851,568	16,650	140,032	84,196
2852,582	16,447	139,967	84,048
2853,597	16,182	139,887	83,861
2854,611	16,241	139,810	83,837
2855,626	16,219	139,776	83,798
2856,641	16,458	139,658	83,839
2857,655	16,487	139,627	83,827
2858,670	16,831	139,530	83,932
2859,684	16,539	139,491	83,756
2860,699	16,596	139,442	83,747
2861,714	16,985	139,325	83,862
2862,728	17,120	139,205	83,849
2863,743	17,117	139,197	83,836
2864,757	16,708	139,179	83,615
2865,772	17,029	138,994	83,655
2866,787	17,057	138,903	83,607
2867,801	17,118	138,863	83,605
2868,816	16,994	138,796	83,496
2869,830	16,996	138,750	83,462
2870,845	17,005	138,598	83,367
2871,860	16,920	138,440	83,223
2872,874	16,827	138,392	83,142
2873,889	16,872	138,366	83,141
2874,903	16,850	138,295	83,080
2875,918	16,830	138,214	83,014
2876,933	16,820	138,128	82,950
2877,947	16,801	138,016	82,866
2878,962	16,745	137,860	82,738
2879,976	16,788	137,785	82,707
2880,991	16,845	137,705	82,679
2882,006	16,572	137,647	82,504
2883,020	16,445	137,556	82,380
2884,035	16,713	137,530	82,488
2885,049	16,612	137,564	82,452
2886,064	16,823	137,536	82,530
2887,079	16,889	137,366	82,453
2888,093	17,081	137,263	82,477
2889,108	16,988	137,180	82,375
2890,122	16,940	137,139	82,320
2891,137	16,896	137,043	82,234
2892,152	16,963	137,051	82,264
2893,166	17,009	136,959	82,224
2894,181	16,987	136,824	82,124
2895,195	16,765	136,695	81,933
2896,210	16,688	136,715	81,900
2897,224	16,701	136,546	81,798
2898,239	17,136	136,466	81,952
2899,254	16,910	136,352	81,768
2900,268	16,842	136,336	81,719
2901,283	16,856	136,199	81,636
2902,297	16,798	136,096	81,539
2903,312	16,634	136,039	81,419
2904,327	16,782	136,044	81,485
2905,341	16,957	135,939	81,500
2906,356	17,069	135,845	81,490
2907,370	16,921	135,791	81,379
2908,385	16,765	135,681	81,231
2909,400	16,777	135,662	81,218
2910,414	17,131	135,515	81,293
2911,429	16,795	135,463	81,094
2912,443	17,021	135,352	81,128
2913,458	16,659	135,221	80,870
2914,473	16,819	135,131	80,885
2915,487	16,383	135,094	80,647
2916,502	16,577	134,962	80,654
2917,516	16,488	134,867	80,547
2918,531	16,428	134,820	80,484
2919,546	16,586	134,776	80,525
2920,560	16,571	134,678	80,453
2921,575	16,503	134,615	80,376
2922,589	16,641	134,638	80,448
2923,604	16,893	134,494	80,474
2924,619	16,921	134,394	80,421
2925,633	16,672	134,374	80,284
2926,648	16,611	134,262	80,181
2927,662	16,668	134,159	80,139
2928,677	16,638	134,174	80,126
2929,692	16,447	133,916	79,875
2930,706	16,555	133,850	79,879
2931,721	16,592	133,865	79,899
2932,735	16,512	133,849	79,845
2933,750	16,741	133,742	79,882
2934,764	16,520	133,614	79,695
2935,779	16,634	133,468	79,654
2936,794	16,615	133,461	79,633
2937,808	16,517	133,492	79,599
2938,823	16,585	133,361	79,546
2939,837	16,572	133,228	79,454
2940,852	16,526	133,219	79,419
2941,867	16,789	133,124	79,479
2942,881	16,783	133,031	79,413
2943,896	16,548	132,998	79,277
2944,910	16,452	132,914	79,174
2945,925	16,607	132,814	79,181
2946,940	16,612	132,748	79,137
2947,954	16,783	132,657	79,156
2948,969	16,998	132,610	79,221
2949,983	16,688	132,500	79,003
2950,998	16,708	132,510	79,011
2952,013	16,610	132,477	78,939
2953,027	16,854	132,333	78,960
2954,042	16,771	132,198	78,834
2955,056	16,750	131,997	78,697
2956,071	16,660	132,023	78,664
2957,086	16,427	131,972	78,518
2958,100	16,910	131,813	78,641
2959,115	16,803	131,839	78,600
2960,129	16,767	131,817	78,563
2961,144	16,882	131,679	78,527
2962,159	16,621	131,678	78,399
2963,173	16,827	131,559	78,416
2964,188	16,815	131,486	78,361
2965,202	17,237	131,552	78,588
2966,217	17,279	131,460	78,546
2967,232	17,317	131,404	78,523
2968,246	16,998	131,210	78,252
2969,261	16,852	131,130	78,131
2970,275	17,021	131,034	78,144
2971,290	17,387	130,954	78,258
2972,304	17,408	130,952	78,260
2973,319	17,291	130,939	78,191
2974,334	17,394	130,835	78,169
2975,348	17,317	130,784	78,097
2976,363	16,990	130,692	77,885
2977,377	17,207	130,554	77,895
2978,392	17,083	130,450	77,769
2979,407	17,359	130,372	77,842
2980,421	17,501	130,362	77,895
2981,436	17,498	130,344	77,876
2982,450	17,362	130,192	77,716
2983,465	17,264	130,035	77,571
2984,480	17,082	130,043	77,485
2985,494	17,341	129,990	77,565
2986,509	17,350	129,918	77,519
2987,523	17,448	129,877	77,533
2988,538	17,339	129,817	77,440
2989,553	17,336	129,665	77,341
2990,567	17,212	129,629	77,257
2991,582	17,526	129,609	77,381
2992,596	17,823	129,495	77,441
2993,611	17,473	129,448	77,247
2994,626	17,645	129,370	77,271
2995,640	17,455	129,200	77,077
2996,655	17,158	129,114	76,884
2997,669	16,893	129,083	76,739
2998,684	17,104	129,027	76,795
2999,699	17,581	128,962	76,965
3000,713	17,418	128,936	76,869
3001,728	17,443	128,819	76,803
3002,742	17,534	128,726	76,782
3003,757	17,463	128,636	76,690
3004,772	17,259	128,637	76,591
3005,786	17,243	128,451	76,467
3006,801	17,041	128,367	76,319
3007,815	17,671	128,320	76,568
3008,830	17,796	128,351	76,635
3009,845	17,735	128,329	76,589
3010,859	17,582	128,134	76,396
3011,874	17,495	128,064	76,309
3012,888	17,467	128,071	76,293
3013,903	17,821	127,994	76,400
3014,917	17,507	127,909	76,202
3015,932	17,462	127,701	76,051
3016,947	17,557	127,757	76,120
3017,961	17,376	127,765	76,037
3018,976	17,836	127,706	76,201
3019,990	17,366	127,544	75,888
3021,005	17,366	127,463	75,833
3022,020	17,585	127,352	75,858
3023,034	17,611	127,299	75,831
3024,049	17,180	127,221	75,586
3025,063	17,353	127,174	75,628
3026,078	17,708	127,110	75,742
3027,093	17,997	127,065	75,836
3028,107	17,553	127,012	75,600
3029,122	17,469	126,914	75,499
3030,136	17,426	126,791	75,400
3031,151	17,737	126,712	75,483
3032,166	18,013	126,818	75,662
3033,180	18,218	126,619	75,627
3034,195	17,835	126,543	75,406
3035,209	17,553	126,455	75,222
3036,224	17,644	126,354	75,196
3037,239	17,687	126,378	75,223
3038,253	17,629	126,227	75,100
3039,268	17,848	126,118	75,125
3040,282	17,820	126,128	75,113
3041,297	17,924	126,034	75,096
3042,312	17,966	126,010	75,093
3043,326	18,005	125,907	75,042
3044,341	17,942	125,847	74,972
3045,355	18,097	125,738	74,969
3046,370	17,872	125,623	74,795
3047,385	17,864	125,566	74,751
3048,399	17,910	125,585	74,775
3049,414	18,262	125,408	74,817
3050,428	18,513	125,379	74,903
3051,443	18,306	125,344	74,785
3052,457	18,317	125,393	74,813
3053,472	18,272	125,211	74,678
3054,487	18,570	125,220	74,807
3055,501	18,618	125,093	74,745
3056,516	18,319	125,035	74,573
3057,530	18,426	125,033	74,612
3058,545	18,580	124,868	74,574
3059,560	18,185	124,842	74,381
3060,574	18,511	124,837	74,513
3061,589	18,778	124,737	74,562
3062,603	18,836	124,672	74,542
3063,618	18,662	124,641	74,441
3064,633	18,679	124,537	74,380
3065,647	18,421	124,433	74,199
3066,662	18,795	124,314	74,284
3067,676	18,762	124,238	74,218
3068,691	18,491	124,337	74,152
3069,706	18,732	124,245	74,195
3070,720	18,870	124,049	74,131
3071,735	18,220	123,976	73,801
3072,749	17,459	123,740	73,326
3073,764	17,017	123,707	73,110
3074,779	17,433	123,666	73,258
3075,793	17,766	123,709	73,421
3076,808	18,348	123,629	73,616
3077,822	18,541	123,649	73,705
3078,837	18,836	123,618	73,807
3079,852	19,088	123,420	73,790
3080,866	18,918	123,388	73,692
3081,881	18,672	123,277	73,514
3082,895	18,170	123,118	73,198
3083,910	18,456	123,111	73,310
3084,925	18,860	123,124	73,483
3085,939	19,108	123,066	73,548
3086,954	19,209	122,922	73,499
3087,968	19,212	123,055	73,572
3088,983	19,378	122,936	73,566
3089,997	18,915	122,914	73,349
3091,012	19,138	122,760	73,346
3092,027	19,022	122,699	73,253
3093,041	19,238	122,630	73,298
3094,056	19,220	122,546	73,233
3095,070	19,279	122,481	73,213
3096,085	19,072	122,401	73,070
3097,100	18,942	122,422	73,021
3098,114	19,111	122,252	72,986
3099,129	18,944	122,215	72,886
3100,143	19,059	122,092	72,855
3101,158	19,078	122,017	72,812
3102,173	18,926	121,957	72,705
3103,187	19,130	121,864	72,729
3104,202	19,097	121,749	72,641
3105,216	19,067	121,692	72,588
3106,231	19,158	121,614	72,573
3107,246	19,254	121,482	72,528
3108,260	19,122	121,421	72,430
3109,275	19,016	121,382	72,355
3110,289	19,170	121,292	72,360
3111,304	19,468	121,208	72,429
3112,319	19,208	121,195	72,306
3113,333	19,042	121,139	72,196
3114,348	19,242	121,021	72,203
3115,362	19,281	120,877	72,127
3116,377	19,133	120,848	72,042
3117,392	19,216	120,709	71,987
3118,406	19,376	120,705	72,045
3119,421	19,530	120,531	71,999
3120,435	19,034	120,562	71,805
3121,450	19,313	120,437	71,840
3122,465	18,548	120,360	71,469
3123,479	18,270	120,151	71,223
3124,494	17,930	120,086	71,037
3125,508	18,160	120,107	71,138
3126,523	18,118	119,932	71,011
3127,537	18,197	119,832	70,978
3128,552	17,896	119,881	70,876
3129,567	18,350	119,738	70,973
3130,581	18,435	119,617	70,931
3131,596	17,988	119,504	70,672
3132,610	17,419	119,517	70,438
3133,625	18,019	119,535	70,691
3134,640	18,921	119,498	71,035
3135,654	19,668	119,535	71,360
3136,669	19,903	119,523	71,443
3137,683	20,092	119,407	71,446
3138,698	19,791	119,427	71,327
3139,713	20,092	119,327	71,385
3140,727	19,787	119,253	71,209
3141,742	20,124	119,154	71,282
3142,756	20,036	119,152	71,238
3143,771	20,087	119,104	71,224
3144,786	20,105	118,867	71,084
3145,800	19,859	118,896	70,994
3146,815	20,027	118,804	71,002
3147,829	19,864	118,784	70,917
3148,844	20,042	118,693	70,929
3149,859	20,058	118,601	70,874
3150,873	20,180	118,607	70,922
3151,888	19,098	119,512	71,010
3152,902	18,134	123,033	72,686
3153,917	19,015	126,990	75,404
3154,932	20,604	128,410	76,944
3155,946	20,792	128,618	77,145
3156,961	20,419	128,736	77,043
3157,975	20,283	128,690	76,949
3158,990	20,420	128,864	77,106
3160,005	20,591	128,935	77,218
3161,019	20,835	128,886	77,291
3162,034	20,547	128,964	77,202
3163,048	20,506	128,921	77,151
3164,063	20,714	128,831	77,184
3165,078	20,194	128,801	76,928
3166,092	20,641	128,668	77,040
3167,107	20,624	128,616	76,994
3168,121	20,746	128,480	76,960
3169,136	20,568	128,433	76,846
3170,150	20,407	128,390	76,742
3171,165	20,339	128,203	76,594
3172,180	20,384	128,157	76,579
3173,194	20,335	128,123	76,531
3174,209	20,777	127,963	76,623
3175,223	20,593	127,919	76,509
3176,238	20,608	127,861	76,474
3177,253	20,809	127,757	76,494
3178,267	20,539	127,815	76,403
3179,282	20,913	127,617	76,442
3180,296	21,265	127,537	76,541
3181,311	21,144	127,414	76,408
3182,326	21,263	127,304	76,388
3183,340	21,437	127,282	76,443
3184,355	21,805	127,266	76,588
3185,369	21,536	127,197	76,422
3186,384	21,747	127,231	76,528
3187,399	21,746	127,138	76,465
3188,413	21,784	127,051	76,422
3189,428	21,659	127,092	76,386
3190,442	21,711	126,831	76,245
3191,457	21,616	126,769	76,159
3192,472	21,379	126,651	75,979
3193,486	20,880	126,523	75,678
3194,501	20,674	126,444	75,535
3195,515	20,623	126,324	75,434
3196,530	20,585	126,242	75,362
3197,545	20,154	126,164	75,122
3198,559	20,317	126,189	75,201
3199,574	20,363	126,083	75,151
3200,588	20,280	126,008	75,064
3201,603	20,314	125,929	75,025
3202,618	20,608	125,820	75,081
3203,632	20,361	125,678	74,883
3204,647	20,843	125,586	75,029
3205,661	20,646	125,569	74,927
3206,676	20,947	125,455	74,982
3207,690	20,482	125,434	74,762
3208,705	20,518	125,413	74,759
3209,720	20,783	125,315	74,808
3210,734	21,184	125,273	74,948
3211,749	21,055	125,326	74,918
3212,763	21,011	125,258	74,852
3213,778	21,247	125,238	74,934
3214,793	21,401	125,077	74,898
3215,807	21,320	125,017	74,820
3216,822	20,733	124,993	74,548
3217,836	21,147	124,989	74,716
3218,851	21,826	124,661	74,803
3219,866	23,195	122,931	74,334
3220,880	25,290	117,644	71,972
3221,895	24,059	113,166	68,751
3222,909	22,254	111,936	67,308
3223,924	21,858	111,491	66,883
3224,939	21,817	111,111	66,634
3225,953	21,692	110,839	66,418
3226,968	22,135	110,626	66,452
3227,982	21,447	111,349	66,618
3228,997	4,786	123,404	66,734
3230,012	-4,126	173,957	88,661
3231,026	24,269	179,349	109,001
3232,041	73,805	87,357	67,366
3233,055	141,522	17,204	16,756
3234,070	34,761	6,393	4,112
3235,085	-4,299	4,768	2,426
3236,099	-15,555	5,485	2,575
3237,114	36,924	5,444	3,540
3238,128	57,128	1,852	1,328
3239,143	-87,396	0,704	0,157
3240,158	-48,297	0,304	0,108
3241,172	-124,518	0,319	-0,036
3242,187	-96,963	0,183	0,035
3243,201	-36,949	0,132	0,052
3244,216	151,624	0,048	0,048
3245,230	-56,198	0,063	0,021
3246,245	-200,000	-0,005	-0,054
3247,260	257,605	0,016	0,020
3248,274	-13,665	-0,132	0,063
3249,289	-104,524	-0,134	-0,023
