DTS Sentinel unit serial number:	SN413077Multiplexer serial number:	ORYXHardware model number:	OX4-SRSoftware version number:	ORYX F/W v4,00 Oryx Data Collector v3.7.2.0data status	okinstallation	Frescati_0136differential loss correction	single-endedforward channel	channel 1reverse channel	N/Adate	2017/08/01time	01:58:22forward acquisition time	600,00reverse acquisition time	0,00gamma	496,2192k internal	0,2340k external	0,2340temperature offset calibration	1,0000default loss term (dB/km)	0,3790temperature slope calibration	1,0000multiplexer offset coefficient	1,0000multiplexer slope coefficient	1,0000fibre end	0,00T internal ref (°C)	28,44T ext. ref 1 (°C)	-241,90T ext. ref 2 (°C)	-241,90length (m)	temperature (°C)	Stokes	anti-Stokes-747,200	41,608	0,137	0,125
-746,185	-150,181	-0,186	-0,014
-745,171	136,923	0,080	0,105
-744,156	-84,492	-0,178	0,056
-743,142	-106,728	0,167	0,037
-742,127	37,625	-0,144	0,128
-741,112	16,511	0,044	0,035
-740,098	-196,589	-0,215	-0,001
-739,083	-160,194	0,077	0,004
-738,069	-123,989	-0,141	-0,022
-737,054	-149,273	0,099	0,008
-736,039	-62,586	-0,261	-0,109
-735,025	-69,303	0,151	0,058
-734,010	643,268	-0,049	-0,126
-732,996	-162,831	-0,147	-0,007
-731,981	800,000	-0,018	0,052
-730,966	800,000	0,019	-0,069
-729,952	-200,000	0,002	0,013
-728,937	705,335	-0,017	-0,046
-727,923	647,398	-0,026	-0,067
-726,908	-107,635	-0,072	-0,016
-725,894	800,000	0,014	-0,045
-724,879	96,442	-0,034	-0,039
-723,864	357,006	-0,023	-0,045
-722,850	224,967	-0,010	0,017
-721,835	548,994	-0,003	-0,007
-720,821	-200,000	0,001	-0,069
-719,806	-87,591	-0,038	0,011
-718,791	92,105	-0,046	-0,051
-717,777	-177,917	0,016	0,000
-716,762	-130,751	-0,034	0,005
-715,748	533,190	-0,026	-0,061
-714,733	-147,044	-0,100	-0,009
-713,718	144,084	-0,033	-0,045
-712,704	-29,526	-0,092	-0,053
-711,689	-66,912	-0,067	-0,027
-710,675	-62,945	-0,033	0,014
-709,660	800,000	0,014	0,051
-708,645	176,404	-0,044	-0,064
-707,631	207,351	0,075	-0,117
-706,616	-139,220	-0,103	0,011
-705,602	-81,126	0,021	0,007
-704,587	-200,000	-0,021	-0,127
-703,572	9,184	-0,016	-0,012
-702,558	-200,000	-0,002	0,027
-701,543	-87,848	-0,044	-0,013
-700,529	-8,574	-0,089	-0,060
-699,514	-200,000	-0,000	0,080
-698,499	-200,000	0,009	0,066
-697,485	126,848	-0,075	-0,095
-696,470	-83,654	-0,080	-0,026
-695,456	-69,875	-0,087	-0,033
-694,441	800,000	-0,022	-0,067
-693,426	122,589	0,028	0,035
-692,412	35,317	-0,067	-0,059
-691,397	761,691	0,026	-0,071
-690,383	200,095	-0,086	-0,132
-689,368	-200,000	-0,007	-0,050
-688,354	509,528	-0,033	-0,077
-687,339	134,922	-0,054	0,070
-686,324	800,000	0,026	-0,074
-685,310	318,505	0,028	-0,053
-684,295	-200,000	-0,002	-0,009
-683,281	24,915	-0,048	0,040
-682,266	-170,689	-0,034	0,001
-681,251	51,003	-0,047	-0,044
-680,237	-17,405	-0,038	-0,024
-679,222	-74,035	0,008	0,003
-678,208	-61,655	0,106	-0,045
-677,193	-39,861	0,065	-0,034
-676,178	-26,937	-0,089	-0,052
-675,164	-120,924	-0,077	-0,013
-674,149	-200,000	-0,001	0,036
-673,135	0,549	0,071	-0,051
-672,120	763,630	-0,010	0,026
-671,105	58,875	-0,022	-0,022
-670,091	-81,595	0,091	-0,030
-669,076	-200,000	-0,001	-0,078
-668,062	-200,000	0,017	-0,092
-667,047	-5,560	-0,061	-0,042
-666,032	-112,352	-0,085	-0,017
-665,018	326,316	0,045	0,087
-664,003	300,938	0,015	-0,028
-662,989	-87,317	-0,099	-0,030
-661,974	130,062	-0,020	-0,026
-660,959	800,000	0,023	-0,074
-659,945	108,158	0,037	-0,044
-658,930	-183,249	0,065	0,001
-657,916	350,569	-0,041	-0,082
-656,901	69,167	-0,084	-0,086
-655,886	800,000	-0,019	-0,065
-654,872	132,820	-0,074	-0,095
-653,857	24,583	0,024	-0,020
-652,843	-200,000	-0,008	-0,095
-651,828	-200,000	0,002	0,102
-650,814	503,120	-0,039	0,089
-649,799	21,703	-0,022	-0,018
-648,784	-200,000	-0,005	0,023
-647,770	-135,468	-0,069	0,008
-646,755	-32,164	-0,078	0,044
-645,741	-200,000	-0,014	-0,127
-644,726	233,149	-0,021	0,035
-643,711	800,000	-0,031	0,107
-642,697	-200,000	-0,001	0,025
-641,682	-200,000	-0,014	-0,088
-640,668	73,144	0,077	-0,080
-639,653	-9,182	-0,094	-0,063
-638,638	-200,000	-0,007	-0,036
-637,624	-200,000	-0,017	-0,139
-636,609	-102,288	0,076	-0,018
-635,595	74,831	0,016	-0,017
-634,580	9,104	-0,061	0,046
-633,565	-200,000	-0,004	-0,066
-632,551	521,055	0,021	0,048
-631,536	-200,000	-0,110	0,000
-630,522	329,892	-0,051	0,098
-629,507	81,810	-0,044	-0,048
-628,492	800,000	-0,022	0,069
-627,478	125,696	0,037	-0,047
-626,463	-200,000	-0,003	0,020
-625,449	-172,382	-0,068	0,002
-624,434	102,022	0,017	0,019
-623,419	-200,000	-0,062	-0,000
-622,405	4,223	-0,034	-0,025
-621,390	-14,243	-0,086	-0,055
-620,376	338,013	0,004	0,009
-619,361	-120,413	-0,097	0,016
-618,346	135,324	-0,046	-0,060
-617,332	800,000	-0,012	-0,048
-616,317	-200,000	0,017	-0,105
-615,303	86,612	-0,054	-0,059
-614,288	800,000	-0,016	0,049
-613,273	712,843	0,022	-0,058
-612,259	-89,388	-0,073	0,022
-611,244	-200,000	0,008	0,082
-610,230	34,813	-0,131	-0,114
-609,215	78,636	-0,052	0,056
-608,201	-110,126	0,079	-0,016
-607,186	-122,966	0,062	-0,010
-606,171	-71,380	-0,133	-0,050
-605,157	-96,290	-0,050	0,013
-604,142	498,585	0,014	0,032
-603,128	-72,762	-0,097	-0,035
-602,113	800,000	-0,025	-0,069
-601,098	-33,256	0,031	-0,017
-600,084	800,000	0,020	0,063
-599,069	176,380	0,084	-0,122
-598,055	730,303	-0,049	-0,130
-597,040	504,936	0,014	0,032
-596,025	598,383	0,007	0,018
-595,011	-200,000	0,007	-0,054
-593,996	147,678	0,025	0,033
-592,982	63,910	-0,020	-0,021
-591,967	-151,817	0,065	-0,005
-590,952	100,405	0,007	-0,008
-589,938	-104,314	-0,024	-0,006
-588,923	800,000	-0,011	-0,038
-587,909	-27,554	0,044	-0,025
-586,894	375,745	0,024	0,049
-585,879	453,885	-0,026	0,057
-584,865	144,691	-0,028	-0,037
-583,850	-62,033	-0,079	0,033
-582,836	225,036	0,026	-0,042
-581,821	-5,151	-0,068	0,047
-580,806	-50,363	0,035	0,017
-579,792	800,000	-0,008	0,030
-578,777	-31,084	-0,056	-0,031
-577,763	-50,544	0,080	-0,038
-576,748	-52,152	-0,102	0,047
-575,733	-86,638	-0,125	-0,038
-574,719	-200,000	-0,005	-0,046
-573,704	-200,000	-0,004	-0,060
-572,690	280,849	-0,069	0,123
-571,675	131,855	-0,045	0,058
-570,661	73,135	-0,022	-0,023
-569,646	-123,989	0,035	0,006
-568,631	-200,000	-0,002	-0,123
-567,617	-200,000	0,008	0,066
-566,602	-61,388	0,136	0,057
-565,588	800,000	0,013	-0,051
-564,573	-81,845	-0,027	0,009
-563,558	-49,836	0,128	0,061
-562,544	59,372	0,036	0,035
-561,529	-115,331	-0,036	0,007
-560,515	-137,733	-0,046	0,005
-559,500	-52,911	-0,084	-0,038
-558,485	800,000	-0,051	-0,154
-557,471	166,886	0,078	-0,110
-556,456	-200,000	-0,004	-0,018
-555,442	-101,408	-0,069	-0,017
-554,427	-200,000	-0,003	-0,020
-553,412	800,000	-0,016	-0,050
-552,398	446,999	-0,031	0,068
-551,383	-200,000	-0,019	-0,095
-550,369	800,000	0,016	-0,050
-549,354	-4,781	0,051	0,035
-548,339	-99,132	-0,127	0,032
-547,325	40,900	-0,024	0,021
-546,310	-51,158	-0,039	0,018
-545,296	-200,000	-0,005	-0,042
-544,281	202,077	0,078	0,120
-543,266	-200,000	0,002	-0,042
-542,252	730,508	-0,013	-0,035
-541,237	208,029	0,006	0,010
-540,223	-173,610	-0,097	-0,003
-539,208	-0,747	-0,077	-0,054
-538,193	800,000	0,008	0,021
-537,179	91,922	0,059	-0,066
-536,164	-45,881	-0,063	-0,031
-535,150	-139,652	0,050	-0,005
-534,135	-160,853	0,063	-0,003
-533,121	29,105	0,056	0,047
-532,106	-161,401	0,019	0,001
-531,091	176,259	0,033	0,047
-530,077	488,986	0,023	-0,052
-529,062	-75,035	-0,015	0,005
-528,048	-137,112	0,024	0,003
-527,033	-200,000	-0,011	0,073
-526,018	800,000	-0,008	0,027
-525,004	800,000	0,007	-0,023
-523,989	258,318	0,025	-0,042
-522,975	800,000	-0,003	-0,011
-521,960	234,173	-0,046	-0,075
-520,945	178,709	0,011	-0,016
-519,931	-131,932	0,033	-0,004
-518,916	212,325	-0,034	-0,053
-517,902	-200,000	-0,002	0,045
-516,887	-151,662	-0,052	0,004
-515,872	-132,927	-0,059	0,007
-514,858	52,200	0,074	-0,071
-513,843	89,824	-0,010	-0,011
-512,829	800,000	-0,010	-0,039
-511,814	392,102	0,024	0,049
-510,799	-200,000	-0,004	0,035
-509,785	-85,893	-0,147	0,045
-508,770	48,416	-0,042	-0,039
-507,756	-19,415	-0,112	0,069
-506,741	445,502	0,029	-0,064
-505,726	683,721	0,024	0,061
-504,712	-200,000	0,021	0,132
-503,697	108,631	-0,039	0,046
-502,683	-7,107	0,082	0,055
-501,668	7,663	-0,020	-0,015
-500,653	145,125	0,027	-0,036
-499,639	189,313	-0,026	-0,039
-498,624	-39,557	-0,027	-0,014
-497,610	800,000	-0,007	0,028
-496,595	-1,390	0,054	-0,038
-495,581	22,322	0,022	-0,018
-494,566	800,000	0,016	0,062
-493,551	-8,503	-0,064	0,043
-492,537	-128,735	-0,077	0,011
-491,522	46,929	0,037	-0,034
-490,508	190,759	-0,014	0,021
-489,493	51,325	-0,020	0,019
-488,478	-200,000	-0,001	-0,039
-487,464	52,873	-0,037	-0,035
-486,449	-200,000	-0,005	-0,049
-485,435	-200,000	0,004	-0,075
-484,420	58,276	0,082	-0,079
-483,405	187,690	0,006	-0,009
-482,391	-118,881	0,052	0,009
-481,376	204,039	0,020	-0,031
-480,362	800,000	-0,015	0,041
-479,347	97,169	-0,017	0,020
-478,332	800,000	0,014	0,047
-477,318	-97,473	0,019	0,005
-476,303	-200,000	0,011	0,057
-475,289	-114,032	-0,018	-0,004
-474,274	-200,000	-0,009	0,049
-473,259	800,000	-0,026	-0,071
-472,245	800,000	0,002	0,007
-471,230	47,795	-0,026	-0,024
-470,216	-158,371	-0,020	0,001
-469,201	-31,736	0,017	0,009
-468,186	28,087	0,062	0,052
-467,172	304,638	-0,005	0,009
-466,157	-177,225	-0,125	0,003
-465,143	-200,000	-0,002	-0,075
-464,128	-68,298	0,079	0,030
-463,113	-94,134	0,022	-0,006
-462,099	615,722	0,022	0,056
-461,084	275,725	-0,019	0,034
-460,070	-16,992	0,059	-0,037
-459,055	29,401	0,056	-0,047
-458,040	229,339	0,016	-0,026
-457,026	228,969	0,011	-0,018
-456,011	25,729	0,037	0,030
-454,997	-85,936	0,064	-0,020
-453,982	-200,000	0,022	0,120
-452,968	-200,000	0,001	0,082
-451,953	-200,000	-0,001	-0,034
-450,938	-97,978	0,104	0,027
-449,924	-54,999	0,095	0,043
-448,909	-16,812	-0,048	0,030
-447,895	125,392	0,032	0,041
-446,880	663,402	0,044	0,113
-445,865	-13,566	0,111	0,071
-444,851	-59,752	0,056	0,024
-443,836	2,857	0,071	0,051
-442,822	319,113	0,030	-0,056
-441,807	-200,000	-0,003	0,043
-440,792	528,912	-0,047	0,110
-439,778	329,037	-0,013	0,025
-438,763	-151,266	-0,051	-0,004
-437,749	10,843	-0,064	0,049
-436,734	240,696	-0,033	0,055
-435,719	-65,039	-0,100	0,040
-434,705	-200,000	0,001	0,114
-433,690	508,020	-0,017	0,040
-432,676	-200,000	0,064	-0,000
-431,661	136,444	0,025	-0,032
-430,646	602,865	0,007	-0,017
-429,632	536,481	0,034	0,080
-428,617	-39,335	0,092	0,048
-427,603	-44,984	0,093	-0,046
-426,588	-157,413	0,070	0,004
-425,573	800,000	0,024	0,092
-424,559	4,360	0,055	0,040
-423,544	367,237	0,049	-0,097
-422,530	-103,304	0,043	-0,010
-421,515	268,640	-0,002	0,003
-420,500	361,024	-0,041	-0,081
-419,486	-23,684	0,056	0,033
-418,471	759,681	0,022	-0,060
-417,457	-44,512	-0,010	0,005
-416,442	-144,361	-0,064	-0,006
-415,428	-182,165	0,021	0,000
-414,413	45,764	0,069	0,063
-413,398	-169,086	0,025	0,001
-412,384	70,029	-0,032	-0,033
-411,369	-87,154	0,148	-0,044
-410,355	-165,779	-0,025	0,001
-409,340	101,442	-0,035	-0,041
-408,325	26,164	0,094	0,078
-407,311	318,302	-0,028	0,052
-406,296	48,036	-0,055	0,051
-405,282	-200,000	-0,002	-0,033
-404,267	-200,000	0,018	-0,120
-403,252	-200,000	-0,013	0,000
-402,238	491,031	0,024	-0,054
-401,223	-12,048	0,020	-0,013
-400,209	195,901	0,032	-0,049
-399,194	701,001	0,028	-0,074
-398,179	-183,562	0,044	0,001
-397,165	-155,592	-0,052	0,003
-396,150	-80,673	-0,039	-0,013
-395,136	-116,666	0,043	0,008
-394,121	14,960	0,120	-0,093
-393,106	-67,669	0,069	-0,027
-392,092	338,076	0,026	0,051
-391,077	-110,909	-0,107	-0,022
-390,063	51,333	-0,013	0,013
-389,048	800,000	-0,021	-0,070
-388,033	-200,000	-0,007	0,046
-387,019	256,692	-0,032	-0,055
-386,004	608,404	-0,035	0,086
-384,990	-131,279	-0,045	0,006
-383,975	77,151	-0,041	-0,043
-382,960	-44,977	-0,034	0,017
-381,946	-151,528	0,070	-0,005
-380,931	800,000	0,021	0,088
-379,917	318,842	0,010	0,019
-378,902	-144,640	0,095	-0,009
-377,888	9,459	0,016	0,012
-376,873	-87,231	0,036	-0,011
-375,858	17,192	-0,029	0,022
-374,844	86,439	0,017	-0,019
-373,829	25,847	0,084	-0,069
-372,815	-3,385	0,040	0,027
-371,800	32,793	0,093	0,080
-370,785	6,823	-0,051	-0,038
-369,771	-91,190	0,041	-0,012
-368,756	39,488	0,062	0,055
-367,742	551,010	-0,034	0,081
-366,727	-53,333	-0,116	0,053
-365,712	723,761	-0,025	-0,067
-364,698	47,464	-0,033	-0,031
-363,683	291,198	-0,022	0,040
-362,669	-200,000	0,003	0,029
-361,654	-200,000	0,001	0,040
-360,639	-200,000	0,005	0,082
-359,625	-16,154	0,090	0,056
-358,610	231,933	0,041	-0,067
-357,596	-52,945	-0,049	-0,022
-356,581	8,169	0,086	-0,064
-355,566	-105,241	-0,062	-0,014
-354,552	-193,455	-0,056	-0,000
-353,537	287,583	0,014	0,025
-352,523	102,083	0,024	-0,027
-351,508	267,885	0,043	0,074
-350,493	-113,061	-0,067	-0,013
-349,479	180,528	-0,026	-0,038
-348,464	254,727	0,063	-0,107
-347,450	47,931	0,053	-0,049
-346,435	-52,464	0,054	-0,025
-345,420	-22,493	0,009	0,005
-344,406	30,887	-0,033	-0,028
-343,391	-200,000	0,010	-0,103
-342,377	-81,817	-0,077	-0,025
-341,362	-200,000	0,002	0,041
-340,348	754,990	0,028	-0,074
-339,333	18,989	0,044	-0,035
-338,318	-1,203	-0,058	-0,040
-337,304	-9,398	0,104	0,068
-336,289	-200,000	-0,020	0,117
-335,275	-200,000	-0,009	-0,056
-334,260	-200,000	0,008	-0,071
-333,245	-130,278	-0,075	0,010
-332,231	-4,762	-0,041	0,028
-331,216	800,000	0,021	0,083
-330,202	-4,805	0,108	0,073
-329,187	800,000	-0,012	0,039
-328,172	265,603	-0,047	0,082
-327,158	-200,000	0,006	0,050
-326,143	800,000	0,018	-0,056
-325,129	-200,000	0,002	0,020
-324,114	-13,539	-0,114	-0,073
-323,099	-88,390	-0,024	-0,007
-322,085	422,627	0,055	0,117
-321,070	-200,000	-0,012	-0,065
-320,056	-200,000	-0,013	-0,109
-319,041	313,404	-0,016	0,029
-318,026	-49,801	0,115	0,054
-317,012	1,917	-0,062	0,044
-315,997	-13,664	-0,094	0,060
-314,983	-200,000	0,001	0,077
-313,968	76,815	0,066	-0,069
-312,953	53,504	0,036	0,034
-311,939	30,663	-0,066	0,055
-310,924	-200,000	-0,002	-0,066
-309,910	-95,759	0,054	-0,014
-308,895	0,253	-0,055	0,038
-307,880	50,474	-0,036	-0,033
-306,866	-75,993	-0,076	-0,027
-305,851	-200,000	-0,012	0,060
-304,837	-200,000	0,000	-0,016
-303,822	72,383	-0,018	-0,018
-302,807	-89,084	0,074	-0,021
-301,793	118,544	-0,023	-0,027
-300,778	254,143	0,046	-0,077
-299,764	35,943	0,037	0,033
-298,749	-15,653	-0,085	0,054
-297,735	613,279	0,025	0,062
-296,720	-27,999	0,087	-0,050
-295,705	-29,155	-0,009	-0,005
-294,691	-88,420	0,117	-0,034
-293,676	208,251	-0,018	0,027
-292,662	-151,426	0,028	-0,002
-291,647	672,494	0,016	-0,041
-290,632	800,000	0,014	-0,059
-289,618	8,105	0,058	-0,043
-288,603	798,182	0,024	0,066
-287,589	184,400	0,081	0,118
-286,574	412,763	0,033	-0,068
-285,559	570,438	0,019	-0,046
-284,545	-116,008	0,049	-0,009
-283,530	800,000	-0,033	0,109
-282,516	229,797	0,053	-0,085
-281,501	-106,982	0,121	0,026
-280,486	-120,596	-0,039	-0,007
-279,472	-200,000	-0,021	-0,098
-278,457	-27,953	0,073	0,042
-277,443	-71,128	-0,067	-0,025
-276,428	22,886	-0,035	-0,029
-275,413	35,268	0,058	-0,050
-274,399	-125,197	0,052	0,008
-273,384	-75,303	-0,064	0,022
-272,370	-156,381	0,023	0,001
-271,355	800,000	0,009	-0,030
-270,340	-159,871	0,086	-0,005
-269,326	-114,586	0,086	-0,016
-268,311	195,392	0,024	-0,036
-267,297	-124,031	-0,018	-0,003
-266,282	326,724	0,041	0,077
-265,267	225,337	0,058	0,093
-264,253	-100,145	0,096	0,024
-263,238	-58,791	-0,130	0,055
-262,224	-200,000	0,001	-0,013
-261,209	-88,463	-0,104	-0,031
-260,195	188,838	-0,023	-0,034
-259,180	-200,000	0,011	0,079
-258,165	9,653	-0,041	0,031
-257,151	-109,853	-0,066	0,014
-256,136	320,161	-0,031	-0,058
-255,122	-200,000	-0,007	-0,094
-254,107	538,027	0,038	0,088
-253,092	380,787	0,034	0,068
-252,078	-139,286	0,077	0,008
-251,063	-127,580	-0,010	0,001
-250,049	800,000	-0,037	0,101
-249,034	263,973	0,043	-0,073
-248,019	26,691	0,052	-0,043
-247,005	-42,384	0,067	0,033
-245,990	432,104	0,038	0,080
-244,976	394,115	0,006	0,012
-243,961	800,000	-0,017	0,069
-242,946	-150,910	0,077	-0,006
-241,932	383,688	0,015	0,030
-240,917	-69,918	0,094	-0,035
-239,903	-200,000	0,009	-0,044
-238,888	800,000	0,022	0,085
-237,873	-84,403	-0,020	-0,006
-236,859	-26,679	-0,034	-0,019
-235,844	-200,000	-0,005	0,063
-234,830	800,000	0,016	-0,050
-233,815	800,000	-0,027	-0,102
-232,800	79,625	-0,026	-0,028
-231,786	262,069	-0,027	0,046
-230,771	-66,037	0,118	-0,046
-229,757	38,640	0,035	-0,031
-228,742	-111,912	-0,140	-0,028
-227,727	38,490	-0,066	-0,058
-226,713	-8,671	-0,062	-0,041
-225,698	-2,470	-0,033	-0,022
-224,684	-96,296	-0,057	-0,015
-223,669	-120,625	0,078	-0,013
-222,655	-200,000	-0,008	0,041
-221,640	65,200	-0,025	0,025
-220,625	-200,000	0,009	0,056
-219,611	21,653	0,065	0,052
-218,596	-100,051	-0,072	0,018
-217,582	21,805	-0,062	-0,049
-216,567	-200,000	0,013	-0,072
-215,552	-200,000	-0,007	0,092
-214,538	-31,281	-0,047	-0,026
-213,523	-131,289	0,066	-0,009
-212,509	-130,278	-0,066	0,009
-211,494	800,000	0,022	0,067
-210,479	72,826	-0,075	0,077
-209,465	-76,654	0,041	-0,014
-208,450	70,014	0,037	0,038
-207,436	42,059	0,037	-0,033
-206,421	800,000	0,008	0,024
-205,406	174,703	0,035	-0,050
-204,392	-109,627	-0,129	-0,027
-203,377	506,415	0,041	0,094
-202,363	104,992	0,083	-0,097
-201,348	28,277	-0,022	-0,018
-200,333	-84,183	-0,086	0,027
-199,319	302,122	0,020	0,036
-198,304	232,279	0,015	-0,023
-197,290	385,407	0,028	0,057
-196,275	-104,796	-0,042	0,009
-195,260	-200,000	-0,028	0,138
-194,246	-87,262	-0,019	0,006
-193,231	800,000	0,018	0,066
-192,217	22,181	-0,044	-0,035
-191,202	-59,795	-0,151	-0,063
-190,187	491,511	-0,042	-0,093
-189,173	-159,260	0,055	0,003
-188,158	-200,000	0,013	0,071
-187,144	-72,058	0,069	0,025
-186,129	175,043	0,032	0,046
-185,114	-118,564	-0,054	0,009
-184,100	-200,000	0,001	-0,048
-183,085	-200,000	0,016	0,077
-182,071	31,305	-0,100	0,085
-181,056	-3,470	-0,033	-0,023
-180,042	196,533	0,034	0,051
-179,027	-48,574	-0,052	0,025
-178,012	-200,000	0,005	0,063
-176,998	-200,000	-0,017	-0,088
-175,983	-200,000	-0,016	0,085
-174,969	209,034	0,021	-0,033
-173,954	-182,444	0,056	-0,001
-172,939	800,000	0,028	0,083
-171,925	729,398	-0,009	0,023
-170,910	280,657	-0,020	-0,035
-169,896	-200,000	-0,006	-0,083
-168,881	-101,082	-0,119	-0,029
-167,866	367,922	-0,048	-0,094
-166,852	336,437	-0,033	0,064
-165,837	775,762	0,021	-0,057
-164,823	67,568	-0,043	0,043
-163,808	155,600	0,036	0,049
-162,793	800,000	0,024	-0,077
-161,779	-200,000	-0,002	-0,077
-160,764	-42,471	-0,082	0,041
-159,750	-95,824	0,047	0,012
-158,735	-151,511	0,080	-0,006
-157,720	800,000	-0,010	-0,031
-156,706	-200,000	0,005	-0,030
-155,691	100,670	0,024	0,027
-154,677	-89,531	-0,049	-0,014
-153,662	75,605	-0,097	-0,101
-152,647	-116,546	0,068	-0,012
-151,633	57,840	-0,012	-0,011
-150,618	-11,143	0,050	-0,032
-149,604	229,609	-0,023	0,037
-148,589	-200,000	0,129	-0,001
-147,574	-9,632	-0,069	-0,045
-146,560	-37,229	0,117	0,061
-145,545	-200,000	0,007	0,074
-144,531	52,166	-0,053	0,049
-143,516	27,056	0,020	-0,017
-142,502	143,994	0,011	-0,015
-141,487	99,865	-0,062	-0,070
-140,472	-200,000	-0,014	0,081
-139,458	-15,806	-0,100	0,062
-138,443	44,818	0,018	-0,016
-137,429	800,000	0,010	0,043
-136,414	-200,000	-0,008	0,095
-135,399	-118,454	0,074	0,013
-134,385	800,000	0,027	0,094
-133,370	24,167	0,049	0,040
-132,356	33,660	0,028	-0,024
-131,341	800,000	0,037	0,149
-130,326	-170,663	-0,029	-0,001
-129,312	279,804	0,039	0,067
-128,297	-20,079	-0,049	0,030
-127,283	-200,000	-0,001	0,030
-126,268	800,000	-0,017	-0,070
-125,253	-200,000	-0,000	-0,048
-124,239	-28,760	-0,111	-0,062
-123,224	-27,522	0,087	-0,049
-122,210	-200,000	0,005	0,055
-121,195	-160,350	0,074	-0,004
-120,180	800,000	0,005	-0,018
-119,166	578,102	0,032	0,076
-118,151	56,924	-0,087	-0,083
-117,137	-60,791	-0,085	-0,035
-116,122	89,039	0,036	-0,039
-115,107	625,149	-0,010	0,024
-114,093	66,744	0,032	0,032
-113,078	211,313	-0,014	0,021
-112,064	25,068	-0,032	0,026
-111,049	31,546	-0,071	-0,059
-110,034	-200,000	-0,007	-0,038
-109,020	-200,000	-0,016	0,112
-108,005	-124,038	0,108	-0,017
-106,991	134,769	-0,058	0,074
-105,976	800,000	0,012	-0,041
-104,962	-200,000	-0,011	-0,080
-103,947	315,848	-0,058	-0,108
-102,932	-105,254	-0,090	0,020
-101,918	-200,000	0,004	-0,052
-100,903	800,000	-0,029	-0,081
-99,889	-200,000	0,002	0,054
-98,874	-122,383	0,063	0,010
-97,859	18,524	0,037	-0,029
-96,845	-75,375	-0,042	0,015
-95,830	-200,000	-0,003	0,015
-94,816	295,834	-0,022	-0,040
-93,801	-115,902	-0,024	-0,004
-92,786	175,398	-0,073	0,104
-91,772	246,293	0,029	-0,049
-90,757	-84,889	-0,040	0,012
-89,743	-136,947	-0,057	0,006
-88,728	43,076	-0,058	0,052
-87,713	-75,243	0,119	-0,041
-86,699	113,694	0,006	-0,007
-85,684	33,701	0,019	0,016
-84,670	14,501	-0,059	-0,045
-83,655	-100,839	-0,024	-0,006
-82,640	-43,169	-0,084	-0,042
-81,626	-8,463	-0,019	0,012
-80,611	-76,165	0,020	-0,007
-79,597	-53,942	0,078	0,034
-78,582	167,936	-0,040	0,055
-77,567	-41,197	-0,047	0,024
-76,553	244,076	0,037	-0,060
-75,538	800,000	-0,016	0,063
-74,524	800,000	-0,030	0,105
-73,509	378,339	-0,013	0,026
-72,494	-200,000	0,008	0,045
-71,480	-200,000	-0,004	0,052
-70,465	411,613	0,026	0,054
-69,451	131,982	-0,015	0,019
-68,436	215,851	-0,028	-0,044
-67,422	175,411	-0,023	-0,033
-66,407	4,483	-0,139	-0,100
-65,392	95,890	0,045	0,050
-64,378	-200,000	0,002	0,049
-63,363	-51,545	0,043	0,020
-62,349	504,805	-0,034	0,077
-61,334	37,714	-1,905	-1,652
-60,319	3,628	2,018	1,437
-59,305	223,443	-3,328	-5,240
-58,290	204,129	3,356	5,074
-57,276	637,201	1,658	4,111
-56,261	640,760	225,543	560,391
-55,246	218,531	2009,881	3132,693
-54,232	136,335	2745,188	3493,987
-53,217	99,164	1979,619	2232,392
-52,203	46,199	1465,659	1324,965
-51,188	35,985	1216,060	1044,269
-50,173	31,148	1171,695	980,784
-49,159	43,740	1264,162	1128,979
-48,144	40,269	1261,951	1107,586
-47,130	30,964	1197,656	1001,408
-46,115	29,627	1178,083	977,933
-45,100	29,186	1171,959	970,485
-44,086	29,027	1169,293	967,404
-43,071	28,941	1167,398	965,345
-42,057	28,903	1165,467	963,515
-41,042	28,763	1163,951	961,490
-40,027	28,675	1162,560	959,839
-39,013	28,623	1161,181	958,392
-37,998	28,564	1159,806	956,916
-36,984	28,572	1158,519	955,855
-35,969	28,561	1157,071	954,564
-34,954	28,533	1155,655	953,216
-33,940	28,512	1154,536	952,143
-32,925	28,468	1153,340	950,890
-31,911	28,493	1151,905	949,802
-30,896	28,512	1150,774	948,926
-29,881	28,459	1149,780	947,799
-28,867	28,474	1148,651	946,907
-27,852	28,431	1147,583	945,764
-26,838	28,500	1146,222	944,962
-25,823	28,498	1145,186	944,059
-24,809	28,474	1144,016	942,936
-23,794	28,448	1143,078	941,993
-22,779	28,430	1142,166	941,110
-21,765	28,453	1141,237	940,425
-20,750	28,428	1140,048	939,278
-19,736	28,383	1138,889	938,057
-18,721	28,430	1137,677	937,262
-17,706	28,446	1136,833	936,611
-16,692	28,478	1135,880	935,955
-15,677	28,428	1135,152	935,060
-14,663	28,394	1134,283	934,133
-13,648	28,435	1133,345	933,532
-12,633	28,388	1132,774	932,788
-11,619	28,331	1131,762	931,629
-10,604	28,328	1131,208	931,119
-9,590	28,363	1130,470	930,650
-8,575	28,354	1129,665	929,907
-7,560	28,303	1129,080	929,129
-6,546	28,309	1128,356	928,528
-5,531	28,281	1127,471	927,622
-4,517	28,275	1126,708	926,922
-3,502	28,320	1125,819	926,386
-2,487	28,331	1124,923	925,664
-1,473	28,319	1123,975	924,789
-0,458	28,340	1122,988	924,045
0,556	28,020	1121,423	922,527
1,571	27,738	1107,251	909,384
2,586	27,487	1007,635	826,358
3,600	23,846	873,603	702,026
4,615	18,781	811,285	633,261
5,629	18,352	803,075	625,233
6,644	18,429	800,555	623,495
7,659	18,662	798,792	622,914
8,673	19,018	795,360	621,468
9,688	18,897	790,523	617,200
10,702	18,639	788,516	614,654
11,717	18,401	786,999	612,565
12,731	18,279	782,999	608,966
13,746	18,123	779,054	605,293
14,761	18,116	777,230	603,795
15,775	18,270	776,274	603,542
16,790	18,258	775,479	602,827
17,804	18,242	774,572	602,013
18,819	18,214	773,757	601,230
19,834	18,233	773,066	600,707
20,848	18,284	772,366	600,289
21,863	18,276	771,628	599,633
22,877	18,286	771,014	599,139
23,892	18,302	770,360	598,630
24,907	18,275	769,854	598,092
25,921	18,318	769,167	597,655
26,936	18,319	768,753	597,285
27,950	18,472	768,186	597,324
28,965	18,423	767,685	596,711
29,980	18,375	767,230	596,137
30,994	18,437	766,698	595,886
32,009	18,501	766,366	595,797
33,023	18,553	765,745	595,445
34,038	18,611	765,250	595,208
35,053	18,643	764,752	594,879
36,067	18,675	764,236	594,534
37,082	18,707	763,893	594,327
38,096	18,754	763,549	594,170
39,111	18,740	763,061	593,687
40,126	18,845	762,579	593,624
41,140	18,870	762,075	593,266
42,155	18,924	761,662	593,076
43,169	18,941	761,263	592,774
44,184	18,930	760,752	592,285
45,199	18,922	760,164	591,746
46,213	18,912	759,581	591,206
47,228	18,835	759,163	590,562
48,242	18,879	758,665	590,274
49,257	18,932	758,287	590,112
50,271	18,934	757,737	589,636
51,286	18,899	757,253	589,088
52,301	18,837	756,775	588,453
53,315	18,868	756,263	588,109
54,330	18,765	755,833	587,370
55,344	18,744	755,163	586,724
56,359	18,542	754,480	585,452
57,374	18,314	753,501	583,863
58,388	18,191	752,899	582,926
59,403	18,152	752,348	582,317
60,417	18,120	751,748	581,691
61,432	18,130	751,366	581,379
62,447	18,291	750,962	581,563
63,461	18,338	750,477	581,294
64,476	18,459	750,096	581,359
65,490	18,688	749,869	581,908
66,505	18,798	749,575	581,998
67,520	18,774	748,935	581,369
68,534	18,708	748,315	580,615
69,549	18,722	747,847	580,247
70,563	18,784	747,554	580,178
71,578	18,849	747,289	580,139
72,593	18,832	746,856	579,696
73,607	18,848	746,430	579,365
74,622	18,854	746,129	579,102
75,636	18,907	745,711	578,906
76,651	18,929	745,241	578,564
77,666	18,904	744,804	578,088
78,680	18,996	744,479	578,095
79,695	18,989	744,007	577,652
80,709	18,905	743,438	576,880
81,724	18,827	743,002	576,228
82,739	18,892	742,594	576,079
83,753	18,968	742,261	576,024
84,768	18,808	741,422	574,785
85,782	18,496	740,617	573,069
86,797	18,237	740,040	571,704
87,812	18,133	739,480	570,876
88,826	18,117	738,940	570,356
89,841	18,111	738,499	569,943
90,855	18,087	737,982	569,413
91,870	18,039	737,542	568,863
92,884	17,994	737,156	568,365
93,899	17,994	736,757	568,009
94,914	18,000	736,393	567,699
95,928	17,981	735,941	567,236
96,943	17,986	735,357	566,752
97,957	18,008	734,823	566,365
98,972	18,009	734,362	565,962
99,987	17,938	733,959	565,365
101,001	17,925	733,461	564,888
102,016	17,966	732,971	564,598
103,030	18,064	732,454	564,472
104,045	17,994	731,921	563,781
105,060	18,003	731,436	563,387
106,074	18,107	730,980	563,330
107,089	18,276	730,719	563,635
108,103	18,313	730,439	563,490
109,118	18,267	729,922	562,892
110,133	18,188	729,483	562,243
111,147	18,242	729,141	562,106
112,162	18,186	728,749	561,570
113,176	18,101	728,326	560,917
114,191	18,053	727,831	560,327
115,206	17,970	727,496	559,750
116,220	17,874	726,880	558,909
117,235	17,799	726,443	558,281
118,249	17,779	725,984	557,812
119,264	17,829	725,505	557,559
120,279	17,817	725,145	557,195
121,293	17,831	724,636	556,798
122,308	17,668	724,149	555,842
123,322	17,001	722,571	552,412
124,337	15,893	721,217	547,726
125,352	15,426	720,407	545,545
126,366	15,468	719,959	545,295
127,381	15,692	719,750	545,815
128,395	16,026	719,613	546,745
129,410	16,060	719,287	546,560
130,424	15,717	718,390	544,718
131,439	15,809	718,328	544,920
132,454	16,504	718,429	547,201
133,468	16,839	718,341	548,167
134,483	16,929	717,947	548,111
135,497	17,113	717,651	548,430
136,512	17,192	716,891	548,057
137,527	17,223	716,344	547,690
138,541	17,209	715,841	547,209
139,556	17,296	715,303	547,032
140,570	17,273	714,768	546,499
141,585	17,282	714,332	546,145
142,600	17,137	713,475	544,976
143,614	16,767	712,902	543,304
144,629	16,417	717,414	545,566
145,643	16,573	726,854	553,205
146,658	16,724	732,445	557,910
147,673	16,732	732,804	558,159
148,687	16,740	732,410	557,835
149,702	16,739	731,862	557,366
150,716	16,645	731,379	556,641
151,731	16,288	730,515	554,759
152,746	15,573	729,585	551,660
153,760	15,809	729,440	552,272
154,775	16,496	729,496	554,522
155,789	16,696	728,973	554,729
156,804	16,552	728,698	554,001
157,819	16,334	728,141	552,813
158,833	15,861	727,355	550,623
159,848	15,687	727,002	549,736
160,862	15,874	727,056	550,342
161,877	16,012	727,037	550,727
162,892	15,626	726,445	548,970
163,906	15,237	725,769	547,143
164,921	15,255	725,377	546,857
165,935	15,317	725,461	547,075
166,950	15,643	725,726	548,288
167,964	16,203	726,317	550,513
168,979	16,457	726,352	551,320
169,994	16,478	725,975	551,054
171,008	16,607	725,544	551,098
172,023	16,877	725,400	551,818
173,037	17,233	725,251	552,817
174,052	17,289	724,581	552,438
175,067	16,904	723,499	550,313
176,081	16,625	722,692	548,747
177,096	16,684	722,019	548,380
178,110	16,800	721,535	548,337
179,125	16,783	720,737	547,627
180,140	16,744	719,692	546,662
181,154	16,646	718,674	545,522
182,169	16,604	717,830	544,698
183,183	16,539	717,279	544,023
184,198	16,420	716,438	542,954
185,213	16,377	715,950	542,400
186,227	16,570	715,644	542,737
187,242	16,781	715,381	543,166
188,256	16,937	714,856	543,222
189,271	16,741	714,317	542,134
190,286	16,571	713,843	541,184
191,300	16,604	713,414	540,917
192,315	16,603	713,309	540,785
193,329	16,801	713,157	541,254
194,344	17,142	713,286	542,394
195,359	17,112	713,029	542,055
196,373	16,765	712,523	540,516
197,388	16,787	712,325	540,388
198,402	16,758	711,987	539,990
199,417	16,474	711,594	538,739
200,432	16,218	711,391	537,724
201,446	16,195	711,152	537,421
202,461	16,194	710,850	537,143
203,475	16,201	710,615	536,940
204,490	16,272	710,435	536,982
205,504	16,223	710,103	536,529
206,519	16,051	709,779	535,687
207,534	16,185	709,717	536,019
208,548	16,359	709,370	536,265
209,563	16,312	708,694	535,555
210,577	16,206	708,240	534,830
211,592	16,271	707,616	534,516
212,607	16,278	707,143	534,134
213,621	16,433	706,615	534,180
214,636	16,582	705,966	534,110
215,650	16,469	705,336	533,230
216,665	16,499	704,667	532,771
217,680	16,586	704,025	532,512
218,694	16,373	702,806	530,876
219,709	16,035	701,677	528,915
220,723	16,011	700,822	528,147
221,738	16,116	700,277	528,020
222,753	16,001	699,581	527,089
223,767	15,799	698,869	525,874
224,782	15,734	698,450	525,309
225,796	15,959	698,179	525,760
226,811	16,296	698,195	526,779
227,826	16,424	698,039	527,013
228,840	16,075	697,243	525,278
229,855	15,887	696,699	524,238
230,869	15,876	696,652	524,121
231,884	15,962	696,546	524,264
232,899	16,030	696,709	524,549
233,913	15,981	696,525	524,213
234,928	15,762	696,323	523,334
235,942	15,960	696,329	523,908
236,957	16,105	696,351	524,328
237,972	16,006	696,103	523,786
238,986	15,976	695,694	523,341
240,001	15,904	695,409	522,856
241,015	15,688	694,913	521,767
242,030	15,757	694,441	521,580
243,045	15,682	694,162	521,093
244,059	15,494	693,487	519,958
245,074	15,302	693,007	518,958
246,088	15,201	692,567	518,268
247,103	15,141	692,248	517,800
248,117	15,138	691,754	517,373
249,132	15,148	691,086	516,860
250,147	15,067	690,684	516,264
251,161	15,105	690,192	515,966
252,176	15,164	689,659	515,704
253,190	15,178	688,773	515,040
254,205	15,100	688,191	514,318
255,220	15,063	687,740	513,823
256,234	15,089	687,126	513,398
257,249	15,087	686,417	512,815
258,263	14,959	685,373	511,599
259,278	14,883	684,524	510,691
260,293	14,905	683,942	510,277
261,307	14,973	683,632	510,209
262,322	14,919	683,176	509,659
263,336	14,900	682,736	509,225
264,351	14,823	682,256	508,589
265,366	14,755	681,825	508,016
266,380	14,770	681,579	507,833
267,395	15,019	681,681	508,621
268,409	15,313	681,780	509,545
269,424	15,345	681,624	509,478
270,439	15,250	681,578	509,112
271,453	15,239	681,698	509,121
272,468	15,197	681,836	509,053
273,482	15,149	681,785	508,824
274,497	15,105	681,612	508,516
275,512	15,119	681,424	508,375
276,526	15,149	681,204	508,256
277,541	15,292	680,935	508,442
278,555	15,343	680,604	508,306
279,570	15,179	680,188	507,453
280,585	15,241	679,799	507,306
281,599	15,346	679,386	507,271
282,614	15,270	678,683	506,471
283,628	15,209	678,095	505,803
284,643	15,101	677,628	505,085
285,657	15,091	677,105	504,620
286,672	15,092	676,576	504,183
287,687	15,148	676,003	503,880
288,701	15,100	675,395	503,237
289,716	15,152	674,875	502,963
290,730	15,280	674,452	502,987
291,745	15,390	673,937	502,889
292,760	15,336	673,427	502,301
293,774	15,184	672,828	501,355
294,789	15,098	672,113	500,522
295,803	15,094	671,673	500,139
296,818	15,225	671,190	500,125
297,833	15,256	670,559	499,701
298,847	15,326	669,982	499,436
299,862	15,362	669,614	499,227
300,876	15,352	669,280	498,903
301,891	15,356	669,102	498,738
302,906	15,271	668,772	498,196
303,920	15,209	668,515	497,775
304,935	15,201	668,261	497,517
305,949	15,167	668,196	497,325
306,964	15,238	668,200	497,494
307,979	15,225	668,077	497,320
308,993	15,193	667,792	496,968
310,008	15,139	667,775	496,752
311,022	15,236	667,726	496,961
312,037	15,191	667,710	496,772
313,052	15,144	667,603	496,509
314,066	15,254	667,184	496,477
315,081	15,144	666,716	495,759
316,095	15,122	666,317	495,355
317,110	15,175	665,936	495,182
318,125	15,117	665,409	494,578
319,139	15,012	664,869	493,821
320,154	15,026	664,522	493,563
321,168	15,174	663,988	493,559
322,183	15,280	663,474	493,443
323,197	15,329	662,916	493,129
324,212	15,300	662,115	492,405
325,227	15,120	661,294	491,222
326,241	14,956	660,614	490,194
327,256	14,909	659,976	489,540
328,270	14,985	659,426	489,310
329,285	14,950	658,966	488,824
330,300	14,928	658,453	488,334
331,314	14,957	658,033	488,066
332,329	14,986	657,471	487,689
333,343	14,888	657,019	487,026
334,358	14,995	656,618	486,996
335,373	15,131	656,347	487,148
336,387	15,170	655,848	486,849
337,402	15,034	655,318	486,018
338,416	14,962	654,949	485,491
339,431	14,915	654,481	484,964
340,446	14,878	654,239	484,637
341,460	15,037	654,124	484,968
342,475	15,119	654,050	485,109
343,489	15,063	653,946	484,827
344,504	14,944	653,679	484,241
345,519	14,909	653,463	483,935
346,533	14,957	653,293	483,906
347,548	14,917	653,300	483,752
348,562	14,907	653,211	483,614
349,577	14,988	653,182	483,785
350,592	14,983	653,220	483,756
351,606	14,981	652,990	483,538
352,621	15,009	652,531	483,235
353,635	14,918	652,199	482,683
354,650	14,976	651,707	482,446
355,665	15,065	651,199	482,282
356,679	14,922	650,718	481,472
357,694	14,801	650,054	480,589
358,708	14,786	649,535	480,120
359,723	14,756	648,829	479,470
360,738	14,718	648,212	478,862
361,752	14,808	647,691	478,694
362,767	14,929	646,772	478,318
363,781	14,861	645,919	477,451
364,796	14,779	645,318	476,730
365,810	14,780	644,884	476,369
366,825	14,831	644,384	476,103
367,840	14,808	643,990	475,705
368,854	14,892	643,406	475,471
369,869	14,803	642,953	474,842
370,883	14,703	642,635	474,281
371,898	14,715	642,249	473,988
372,913	14,826	642,032	474,100
373,927	14,821	641,843	473,904
374,942	14,918	641,516	473,896
375,956	14,898	641,478	473,770
376,971	14,836	641,111	473,282
377,986	14,665	640,851	472,562
379,000	14,666	640,726	472,432
380,015	14,719	640,720	472,535
381,029	14,836	640,507	472,668
382,044	14,750	640,222	472,172
383,059	14,624	640,121	471,700
384,073	14,535	640,036	471,344
385,088	14,547	639,724	471,107
386,102	14,633	639,551	471,180
387,117	14,647	639,434	471,093
388,132	14,744	639,409	471,304
389,146	14,885	639,368	471,632
390,161	14,839	639,198	471,335
391,175	14,752	638,801	470,756
392,190	14,629	638,228	469,944
393,205	14,573	637,587	469,273
394,219	14,494	637,148	468,687
395,234	14,743	636,853	469,129
396,248	14,841	636,238	468,909
397,263	14,821	635,598	468,339
398,278	14,755	634,850	467,561
399,292	14,704	634,303	466,976
400,307	14,629	633,574	466,188
401,321	14,567	632,831	465,426
402,336	14,681	631,909	465,024
403,350	14,618	631,184	464,275
404,365	14,562	630,718	463,736
405,380	14,565	630,281	463,380
406,394	14,753	629,954	463,622
407,409	14,748	629,560	463,277
408,423	14,679	629,281	462,839
409,438	14,710	629,032	462,702
410,453	14,745	628,606	462,444
411,467	14,764	628,261	462,201
412,482	14,710	628,086	461,882
413,496	14,644	627,906	461,527
414,511	14,581	627,685	461,149
415,526	14,569	627,672	461,064
416,540	14,572	627,566	460,956
417,555	14,634	627,657	461,151
418,569	14,747	627,472	461,288
419,584	14,775	627,143	461,081
420,599	14,702	626,999	460,735
421,613	14,825	626,877	460,943
422,628	14,909	626,612	460,938
423,642	14,823	626,058	460,253
424,657	14,662	625,718	459,520
425,672	14,708	625,443	459,404
426,686	14,829	625,064	459,419
427,701	14,862	624,799	459,272
428,715	14,766	624,512	458,759
429,730	14,830	624,159	458,633
430,745	14,876	623,597	458,305
431,759	14,952	623,127	458,129
432,774	14,807	622,479	457,214
433,788	14,744	621,983	456,637
434,803	14,796	621,481	456,371
435,818	14,749	620,892	455,770
436,832	14,835	620,528	455,696
437,847	14,946	620,011	455,579
438,861	14,843	619,626	454,975
439,876	14,922	619,149	454,801
440,890	14,926	618,336	454,174
441,905	14,926	617,612	453,601
442,920	14,884	616,974	452,977
443,934	14,815	616,733	452,576
444,949	14,825	616,441	452,346
445,963	14,968	616,226	452,536
446,978	15,053	615,985	452,548
447,993	15,041	615,745	452,300
449,007	14,890	615,516	451,684
450,022	14,903	615,319	451,535
451,036	14,936	615,282	451,556
452,051	15,010	615,081	451,568
453,066	14,928	615,167	451,370
454,080	14,918	615,211	451,335
455,095	14,901	615,407	451,395
456,109	14,978	615,213	451,420
457,124	14,962	615,062	451,225
458,139	14,896	614,784	450,803
459,153	14,914	614,427	450,552
460,168	15,069	614,136	450,714
461,182	15,120	613,874	450,619
462,197	15,145	613,531	450,396
463,212	15,088	613,041	449,844
464,226	15,122	612,622	449,587
465,241	15,092	612,108	449,088
466,255	15,054	611,583	448,563
467,270	15,044	611,188	448,205
468,285	15,190	610,668	448,177
469,299	15,063	610,047	447,341
470,314	15,001	609,607	446,814
471,328	15,044	609,163	446,562
472,343	15,129	608,733	446,436
473,358	15,209	608,236	446,243
474,372	15,241	607,733	445,921
475,387	15,301	607,283	445,710
476,401	15,375	606,776	445,495
477,416	15,285	606,327	444,888
478,430	15,197	605,785	444,218
479,445	15,045	605,196	443,343
480,460	15,134	604,568	443,078
481,474	15,239	604,271	443,101
482,489	15,211	603,917	442,728
483,503	15,154	603,593	442,302
484,518	15,302	603,372	442,490
485,533	15,391	603,338	442,661
486,547	15,309	603,089	442,224
487,562	15,298	603,057	442,131
488,576	15,357	602,887	442,124
489,591	15,282	602,684	441,737
490,606	15,326	602,688	441,818
491,620	15,305	602,516	441,596
492,635	15,227	602,608	441,420
493,649	15,260	602,673	441,514
494,664	15,338	602,861	441,820
495,679	15,334	602,573	441,558
496,693	15,397	602,253	441,451
497,708	15,449	602,015	441,372
498,722	15,518	601,616	441,224
499,737	15,442	601,212	440,689
500,752	15,424	600,760	440,271
501,766	15,469	600,242	439,970
502,781	15,450	599,793	439,551
503,795	15,433	599,247	439,069
504,810	15,501	598,682	438,794
505,825	15,429	597,994	438,063
506,839	15,493	597,103	437,539
507,854	15,370	596,613	436,820
508,868	15,439	595,985	436,500
509,883	15,351	595,569	435,928
510,898	15,299	595,041	435,368
511,912	15,375	594,516	435,144
512,927	15,477	594,226	435,157
513,941	15,530	593,702	434,873
514,956	15,337	593,163	433,940
515,971	15,280	592,757	433,457
516,985	15,449	592,551	433,705
518,000	15,437	592,238	433,406
519,014	15,486	592,037	433,346
520,029	15,461	591,657	432,968
521,043	15,341	591,341	432,389
522,058	15,336	591,071	432,140
523,073	15,452	591,113	432,431
524,087	15,390	590,939	432,105
525,102	15,310	590,806	431,763
526,116	15,331	590,745	431,735
527,131	15,317	590,409	431,415
528,146	15,338	590,296	431,347
529,160	15,430	590,273	431,530
530,175	15,281	589,998	430,908
531,189	15,035	589,787	430,083
532,204	14,994	589,639	429,832
533,219	15,082	589,372	429,825
534,233	14,998	589,155	429,413
535,248	15,081	588,767	429,307
536,262	15,060	588,360	428,916
537,277	15,041	587,895	428,491
538,292	15,006	587,390	427,995
539,306	14,965	586,953	427,535
540,321	15,028	586,522	427,344
541,335	15,116	586,077	427,206
542,350	15,261	585,557	427,160
543,365	15,323	584,960	426,844
544,379	15,211	584,234	425,991
545,394	15,239	583,477	425,473
546,408	15,279	582,808	425,050
547,423	15,260	582,224	424,536
548,438	15,189	581,739	423,967
549,452	15,252	581,314	423,778
550,467	15,250	580,912	423,443
551,481	15,248	580,517	423,112
552,496	15,175	580,201	422,661
553,511	15,293	580,076	422,829
554,525	15,435	579,886	423,011
555,540	15,644	579,726	423,383
556,554	15,760	579,713	423,630
557,569	15,852	579,554	423,708
558,583	15,739	579,510	423,352
559,598	15,693	579,384	423,107
560,613	15,631	579,281	422,837
561,627	15,724	579,181	422,962
562,642	15,707	579,159	422,865
563,656	15,646	578,882	422,474
564,671	15,585	578,683	422,136
565,686	15,707	578,500	422,272
566,700	15,837	578,447	422,522
567,715	15,918	578,284	422,569
568,729	15,954	578,037	422,442
569,744	16,035	577,757	422,404
570,759	16,069	577,388	422,182
571,773	15,956	577,131	421,672
572,788	15,844	576,773	421,094
573,802	16,067	576,503	421,417
574,817	16,289	576,263	421,760
575,832	16,415	576,005	421,849
576,846	16,384	575,344	421,248
577,861	16,267	574,848	420,556
578,875	16,147	574,448	419,929
579,890	16,429	574,044	420,298
580,905	16,564	573,613	420,279
581,919	16,675	573,341	420,320
582,934	16,894	572,879	420,488
583,948	16,811	572,070	419,650
584,963	16,494	571,237	418,219
585,978	16,517	570,706	417,850
586,992	16,539	570,338	417,597
588,007	16,528	570,036	417,312
589,021	16,622	569,877	417,390
590,036	16,747	569,635	417,485
591,051	16,656	569,239	416,934
592,065	16,790	569,094	417,119
593,080	16,938	568,987	417,368
594,094	16,632	568,656	416,335
595,109	16,424	568,499	415,673
596,123	16,558	568,390	415,885
597,138	16,558	568,427	415,876
598,153	16,718	568,663	416,406
599,167	16,941	568,750	416,980
600,182	16,905	568,528	416,691
601,196	16,711	568,291	416,005
602,211	16,780	568,190	416,064
603,226	16,982	568,085	416,446
604,240	16,776	567,736	415,647
605,255	16,528	567,240	414,641
606,269	16,600	566,914	414,542
607,284	16,861	566,668	414,964
608,299	16,923	566,364	414,857
609,313	16,786	565,859	414,115
610,328	16,741	565,460	413,676
611,342	16,996	565,446	414,251
612,357	17,318	565,172	414,801
613,372	17,246	564,564	414,142
614,386	17,017	564,006	413,140
615,401	16,838	563,445	412,255
616,415	16,869	562,952	411,934
617,430	17,019	562,637	412,031
618,445	17,186	562,262	412,125
619,459	17,185	561,870	411,798
620,474	17,093	561,209	411,054
621,488	16,835	560,562	409,921
622,503	16,722	559,920	409,142
623,518	16,877	559,497	409,172
624,532	17,241	559,156	409,763
625,547	17,395	558,720	409,780
626,561	17,083	558,290	408,677
627,576	16,783	557,826	407,579
628,591	16,614	557,605	406,975
629,605	16,629	557,391	406,819
630,620	16,422	557,114	406,083
631,634	15,850	556,589	404,292
632,649	15,517	556,171	403,151
633,663	15,310	555,916	402,434
634,678	15,274	555,864	402,274
635,693	15,480	556,174	402,958
636,707	15,950	556,511	404,295
637,722	16,016	556,521	404,424
638,736	15,767	556,279	403,617
639,751	15,811	556,175	403,611
640,766	16,314	556,121	404,741
641,780	16,617	555,979	405,329
642,795	16,725	555,903	405,496
643,809	16,731	555,513	405,190
644,824	16,123	554,639	403,064
645,839	15,586	554,094	401,349
646,853	16,122	554,180	402,655
647,868	16,630	554,041	403,732
648,882	16,805	553,579	403,778
649,897	16,727	553,066	403,180
650,912	16,785	552,081	402,566
651,926	17,188	546,377	399,319
652,941	17,041	538,539	393,215
653,955	16,748	534,260	389,381
654,970	17,064	533,056	389,196
655,985	17,347	532,503	389,406
656,999	17,341	532,139	389,090
658,014	17,367	531,593	388,715
659,028	17,436	531,053	388,445
660,043	17,413	530,525	387,971
661,058	17,415	530,138	387,659
662,072	17,429	529,682	387,323
663,087	17,272	529,095	386,502
664,101	17,067	528,597	385,639
665,116	16,987	527,966	384,962
666,131	16,333	527,083	382,801
667,145	15,965	526,586	381,574
668,160	16,222	526,441	382,017
669,174	16,354	525,977	381,945
670,189	16,015	525,288	380,645
671,204	15,725	524,817	379,616
672,218	15,536	524,392	378,849
673,233	15,751	524,295	379,230
674,247	16,678	524,664	381,553
675,262	17,717	524,889	384,025
676,276	18,051	524,733	384,630
677,291	18,048	524,339	384,299
678,306	18,015	523,898	383,869
679,320	17,977	523,598	383,529
680,335	17,939	523,286	383,182
681,349	18,134	522,953	383,341
682,364	18,210	522,602	383,220
683,379	18,286	522,271	383,113
684,393	18,330	522,049	383,015
685,408	18,431	521,702	382,953
686,422	18,530	521,237	382,798
687,437	18,469	520,872	382,360
688,452	18,530	520,505	382,194
689,466	18,601	520,145	382,052
690,481	18,531	519,914	381,693
691,495	18,462	519,481	381,188
692,510	18,277	518,960	380,360
693,525	18,339	518,506	380,131
694,539	18,323	518,337	379,939
695,554	18,241	518,022	379,494
696,568	18,250	517,587	379,162
697,583	18,213	517,510	378,988
698,598	18,247	517,188	378,795
699,612	18,323	516,856	378,685
700,627	18,279	516,597	378,366
701,641	18,306	516,285	378,162
702,656	18,282	515,936	377,821
703,671	18,311	515,698	377,678
704,685	18,216	515,398	377,214
705,700	18,266	515,201	377,147
706,714	18,349	514,896	377,073
707,729	18,274	514,579	376,644
708,744	18,336	514,246	376,502
709,758	18,374	513,885	376,288
710,773	18,445	513,628	376,223
711,787	18,603	513,462	376,415
712,802	18,881	513,448	376,981
713,816	19,239	513,188	377,542
714,831	19,141	512,848	377,043
715,846	19,141	512,479	376,738
716,860	19,142	512,197	376,501
717,875	19,299	511,887	376,583
718,889	19,250	511,532	376,179
719,904	19,267	511,122	375,884
720,919	19,231	510,766	375,508
721,933	19,232	510,457	375,251
722,948	19,178	510,084	374,826
723,962	19,187	509,704	374,533
724,977	19,167	509,316	374,173
725,992	19,192	509,121	374,049
727,006	19,129	508,747	373,604
728,021	19,045	508,370	373,114
729,035	19,060	508,021	372,856
730,050	19,041	507,739	372,575
731,065	19,141	507,595	372,653
732,079	19,088	507,382	372,349
733,094	18,896	507,020	371,635
734,108	18,687	506,755	370,956
735,123	18,581	506,326	370,381
736,138	18,493	506,002	369,920
737,152	18,449	505,717	369,585
738,167	18,479	505,321	369,328
739,181	18,419	505,175	369,058
740,196	18,514	504,956	369,071
741,211	18,716	504,952	369,470
742,225	18,907	504,871	369,788
743,240	19,036	504,571	369,813
744,254	19,108	504,352	369,775
745,269	19,174	504,172	369,753
746,284	19,165	503,950	369,536
747,298	19,261	503,595	369,451
748,313	19,255	503,360	369,232
749,327	19,190	503,076	368,851
750,342	19,209	502,719	368,597
751,356	19,123	502,451	368,186
752,371	19,180	502,207	368,095
753,386	19,216	501,824	367,859
754,400	19,260	501,653	367,796
755,415	19,225	501,275	367,410
756,429	19,279	500,951	367,257
757,444	19,205	500,727	366,902
758,459	19,134	500,513	366,562
759,473	19,130	500,065	366,192
760,488	19,066	499,714	365,767
761,502	18,935	499,514	365,310
762,517	18,989	499,134	365,114
763,532	18,930	498,799	364,712
764,546	18,939	498,415	364,419
765,561	18,825	498,135	363,940
766,575	18,828	497,759	363,638
767,590	18,709	497,428	363,112
768,605	18,807	497,083	363,035
769,619	18,775	496,819	362,744
770,634	18,687	496,536	362,319
771,648	18,661	496,131	361,937
772,663	18,632	495,845	361,635
773,678	18,620	495,539	361,355
774,692	18,602	495,325	361,129
775,707	18,566	495,008	360,790
776,721	18,593	494,799	360,662
777,736	18,573	494,550	360,407
778,751	18,599	494,268	360,223
779,765	18,579	493,980	359,940
780,780	18,666	493,715	359,897
781,794	18,719	493,511	359,827
782,809	18,667	493,186	359,451
783,824	19,052	490,691	358,402
784,838	19,213	485,932	355,227
785,853	19,058	482,469	352,346
786,867	19,320	481,388	352,062
787,882	19,393	481,553	352,299
788,897	18,499	489,720	356,385
789,911	18,871	503,778	367,380
790,926	19,437	512,367	374,840
791,940	19,209	513,960	375,475
792,955	19,208	513,732	375,273
793,969	19,132	513,635	375,002
794,984	19,048	514,028	375,073
795,999	19,119	514,749	375,720
797,013	19,185	514,767	375,846
798,028	19,115	514,416	375,402
799,042	19,129	514,163	375,216
800,057	18,989	514,190	374,898
801,072	18,815	514,044	374,379
802,086	18,645	513,892	373,864
803,101	18,801	513,475	373,868
804,115	18,879	512,959	373,628
805,130	18,820	512,558	373,174
806,145	18,670	512,323	372,645
807,159	18,541	511,806	371,956
808,174	18,588	510,985	371,429
809,188	18,506	510,467	370,842
810,203	18,502	510,031	370,483
811,218	18,496	509,801	370,270
812,232	18,446	509,852	370,168
813,247	18,499	510,087	370,420
814,261	18,634	510,030	370,636
815,276	18,778	509,485	370,519
816,291	18,782	508,886	370,059
817,305	18,928	508,340	369,943
818,320	19,305	507,979	370,459
819,334	19,583	507,896	370,962
820,349	19,654	507,962	371,130
821,364	19,735	508,367	371,568
822,378	19,874	508,176	371,693
823,393	19,917	507,510	371,267
824,407	19,842	507,005	370,703
825,422	19,806	506,912	370,525
826,437	19,768	506,756	370,295
827,451	19,618	506,457	369,723
828,466	19,452	506,041	369,032
829,480	19,440	505,633	368,678
830,495	19,307	505,189	368,037
831,509	19,116	504,477	367,077
832,524	18,821	503,666	365,827
833,539	18,721	502,939	365,054
834,553	18,580	502,501	364,405
835,568	18,521	502,511	364,254
836,582	18,602	502,654	364,498
837,597	18,647	502,691	364,588
838,612	18,578	502,235	364,079
839,626	18,688	501,403	363,677
840,641	18,630	500,606	362,943
841,655	18,588	500,181	362,515
842,670	18,551	500,456	362,604
843,685	18,580	500,569	362,715
844,699	18,606	500,587	362,749
845,714	18,697	500,018	362,498
846,728	18,618	499,321	361,795
847,743	18,630	499,065	361,603
848,758	18,622	499,077	361,562
849,772	18,674	499,110	361,663
850,787	18,672	498,965	361,522
851,801	18,689	498,469	361,167
852,816	18,622	498,064	360,701
853,831	18,614	497,884	360,520
854,845	18,695	498,000	360,742
855,860	18,934	496,889	360,407
856,874	19,233	488,894	355,194
857,889	18,677	478,979	346,835
858,904	18,182	474,129	342,304
859,918	18,380	472,740	341,666
860,933	18,295	472,156	341,045
861,947	18,256	471,750	340,643
862,962	18,162	471,083	339,944
863,977	18,148	470,522	339,482
864,991	18,157	470,146	339,198
866,006	18,195	469,973	339,119
867,020	18,240	469,632	338,931
868,035	18,282	469,260	338,716
869,049	18,260	468,914	338,393
870,064	18,299	468,622	338,230
871,079	18,306	468,384	338,041
872,093	18,253	468,110	337,710
873,108	18,279	467,665	337,410
874,122	18,239	467,374	337,090
875,137	18,185	466,968	336,663
876,152	17,402	466,084	334,457
877,166	16,362	465,196	331,748
878,181	15,943	464,746	330,575
879,195	16,143	464,585	330,824
880,210	16,280	464,435	330,957
881,225	16,453	464,165	331,074
882,239	16,448	463,839	330,803
883,254	16,362	463,644	330,466
884,268	16,344	463,380	330,213
885,283	16,284	463,016	329,808
886,298	16,110	462,648	329,177
887,312	16,337	462,505	329,487
888,327	16,977	462,660	330,817
889,341	17,228	462,577	331,219
890,356	17,373	462,267	331,251
891,371	17,427	462,027	331,154
892,385	17,540	461,766	331,157
893,400	17,558	461,485	330,961
894,414	17,513	461,248	330,675
895,429	17,459	461,004	330,366
896,444	17,469	460,772	330,188
897,458	17,486	460,423	329,944
898,473	17,530	460,215	329,851
899,487	17,580	459,885	329,681
900,502	17,536	459,677	329,417
901,517	17,543	459,384	329,193
902,531	17,561	459,047	328,957
903,546	17,509	458,885	328,711
904,560	17,522	458,579	328,488
905,575	17,554	458,187	328,238
906,589	18,111	454,585	326,694
907,604	18,029	446,882	320,977
908,619	17,535	440,838	315,691
909,633	17,440	438,676	313,940
910,648	17,431	437,942	313,370
911,662	17,400	437,479	312,955
912,677	17,588	436,936	312,884
913,692	17,549	436,290	312,322
914,706	17,602	435,784	312,029
915,721	17,607	435,503	311,809
916,735	17,634	435,185	311,604
917,750	17,637	434,959	311,421
918,765	17,599	434,657	311,107
919,779	17,630	434,330	310,902
920,794	17,679	434,107	310,803
921,808	17,742	433,638	310,557
922,823	17,741	433,325	310,301
923,838	17,652	433,016	309,891
924,852	17,649	432,691	309,626
925,867	17,258	432,210	308,545
926,881	16,696	431,592	307,057
927,896	16,637	431,317	306,727
928,911	17,071	431,219	307,416
929,925	17,297	431,114	307,725
930,940	17,444	430,873	307,791
931,954	17,364	430,577	307,408
932,969	17,295	430,186	306,976
933,984	16,923	429,666	305,907
934,998	16,475	429,187	304,732
936,013	16,029	428,700	303,556
937,027	15,751	428,185	302,664
938,042	15,850	428,197	302,824
939,057	16,847	428,375	304,715
940,071	17,296	428,362	305,487
941,086	17,202	428,158	305,145
942,100	17,198	427,783	304,844
943,115	17,086	427,412	304,352
944,130	17,053	427,139	304,072
945,144	17,024	426,897	303,820
946,159	16,971	426,647	303,521
947,173	17,179	426,531	303,784
948,188	17,180	426,287	303,586
949,202	17,316	426,009	303,602
950,217	17,167	425,661	303,063
951,232	17,004	425,380	302,545
952,246	17,040	425,162	302,426
953,261	17,121	424,887	302,349
954,275	17,024	424,664	301,991
955,290	17,079	424,356	301,842
956,305	17,109	424,056	301,656
957,319	16,978	423,786	301,204
958,334	16,885	423,437	300,766
959,348	16,791	423,155	300,371
960,363	16,798	422,876	300,160
961,378	16,872	422,557	300,037
962,392	16,751	422,401	299,686
963,407	16,669	422,009	299,236
964,421	16,629	421,673	298,900
965,436	16,603	421,541	298,735
966,451	16,557	421,284	298,446
967,465	16,647	420,956	298,345
968,480	16,726	420,583	298,194
969,494	16,677	420,193	297,804
970,509	16,533	419,840	297,274
971,524	16,274	419,541	296,582
972,538	16,337	419,261	296,469
973,553	16,394	418,944	296,317
974,567	16,420	418,670	296,143
975,582	16,422	418,466	295,976
976,597	16,507	418,376	296,034
977,611	16,675	418,258	296,220
978,626	16,771	417,870	296,087
979,640	16,436	417,496	295,211
980,655	16,224	417,215	294,615
981,670	16,217	416,888	294,346
982,684	16,265	416,780	294,327
983,699	16,342	416,554	294,276
984,713	16,343	416,184	293,990
985,728	16,070	415,903	293,292
986,742	16,007	415,567	292,918
987,757	16,077	415,388	292,889
988,772	16,250	415,235	293,055
989,786	16,275	414,985	292,895
990,801	16,235	414,771	292,649
991,815	16,366	414,557	292,699
992,830	16,279	414,290	292,334
993,845	16,035	413,959	291,653
994,859	15,948	413,740	291,322
995,874	16,246	413,557	291,683
996,888	16,305	413,413	291,658
997,903	16,277	413,151	291,398
998,918	16,145	412,847	290,930
999,932	16,194	412,676	290,869
1000,947	16,354	412,421	290,938
1001,961	16,336	412,279	290,782
1002,976	16,200	412,015	290,335
1003,991	16,029	411,584	289,713
1005,005	15,954	411,234	289,312
1006,020	16,105	411,008	289,386
1007,034	16,194	410,854	289,404
1008,049	16,140	410,638	289,134
1009,064	16,045	410,268	288,685
1010,078	16,159	410,085	288,726
1011,093	16,172	409,806	288,526
1012,107	16,049	409,396	288,003
1013,122	15,874	409,121	287,484
1014,137	15,795	408,953	287,207
1015,151	16,124	408,855	287,674
1016,166	16,288	408,733	287,841
1017,180	16,234	408,512	287,569
1018,195	16,262	408,224	287,388
1019,210	16,240	407,919	287,110
1020,224	16,058	407,641	286,580
1021,239	15,926	407,406	286,165
1022,253	16,064	407,312	286,308
1023,268	16,167	407,004	286,241
1024,282	16,154	406,735	286,005
1025,297	16,130	406,468	285,752
1026,312	15,875	406,223	285,121
1027,326	15,727	405,979	284,674
1028,341	15,997	406,001	285,122
1029,355	16,294	405,814	285,468
1030,370	16,223	405,509	285,108
1031,385	16,011	405,079	284,423
1032,399	15,830	404,843	283,926
1033,414	15,860	404,707	283,857
1034,428	16,042	404,561	284,037
1035,443	15,980	404,287	283,713
1036,458	16,003	404,171	283,646
1037,472	16,131	403,989	283,709
1038,487	16,144	403,702	283,503
1039,501	16,041	403,409	283,100
1040,516	15,871	403,102	282,574
1041,531	15,727	402,885	282,155
1042,545	16,018	402,809	282,566
1043,560	16,320	402,595	282,896
1044,574	16,238	402,403	282,599
1045,589	16,020	402,146	282,029
1046,604	15,808	401,793	281,400
1047,618	15,740	401,254	280,886
1048,633	15,765	401,007	280,730
1049,647	15,647	400,720	280,307
1050,662	15,549	400,443	279,924
1051,677	15,548	400,181	279,716
1052,691	15,463	399,999	279,422
1053,706	15,473	399,742	279,233
1054,720	15,476	399,477	279,030
1055,735	15,614	399,280	279,096
1056,750	15,568	398,972	278,780
1057,764	15,621	398,777	278,708
1058,779	15,555	398,520	278,394
1059,793	15,599	398,363	278,331
1060,808	15,737	398,184	278,410
1061,823	15,774	397,927	278,267
1062,837	15,502	397,648	277,599
1063,852	15,424	397,337	277,228
1064,866	15,414	397,123	277,037
1065,881	15,425	396,844	276,836
1066,895	15,337	396,665	276,542
1067,910	15,613	396,559	276,898
1068,925	15,604	396,363	276,722
1069,939	15,547	396,043	276,380
1070,954	15,537	395,767	276,147
1071,968	15,470	395,433	275,780
1072,983	15,466	395,238	275,613
1073,998	15,353	394,991	275,231
1075,012	15,522	394,759	275,321
1076,027	15,394	394,662	275,019
1077,041	15,505	394,404	274,998
1078,056	15,453	394,094	274,671
1079,071	15,319	393,786	274,213
1080,085	15,303	393,574	274,016
1081,100	15,302	393,390	273,863
1082,114	15,479	393,233	274,016
1083,129	15,586	392,982	273,993
1084,144	15,552	392,831	273,808
1085,158	15,615	392,634	273,749
1086,173	15,734	392,490	273,819
1087,187	15,642	392,227	273,461
1088,202	15,674	392,066	273,376
1089,217	15,598	391,892	273,106
1090,231	15,485	391,603	272,698
1091,246	15,421	391,298	272,357
1092,260	15,350	391,145	272,112
1093,275	15,506	390,925	272,188
1094,290	15,449	390,681	271,901
1095,304	15,424	390,498	271,709
1096,319	15,472	390,314	271,635
1097,333	15,674	390,109	271,794
1098,348	15,841	389,865	271,870
1099,363	15,798	389,548	271,556
1100,377	15,795	389,298	271,353
1101,392	15,863	389,065	271,276
1102,406	15,884	388,799	271,100
1103,421	15,913	388,747	271,087
1104,435	16,018	388,617	271,141
1105,450	16,047	388,313	270,951
1106,465	15,833	387,998	270,364
1107,479	15,725	387,618	269,902
1108,494	15,605	387,477	269,587
1109,508	15,716	387,258	269,589
1110,523	15,885	387,015	269,666
1111,538	15,889	386,877	269,553
1112,552	15,938	386,728	269,505
1113,567	15,802	386,462	269,077
1114,581	15,812	386,273	268,938
1115,596	15,878	386,105	268,902
1116,611	15,972	385,908	268,891
1117,625	16,082	385,763	268,942
1118,640	16,014	385,533	268,650
1119,654	15,991	385,326	268,445
1120,669	16,012	385,101	268,299
1121,684	16,061	384,882	268,200
1122,698	16,126	384,618	268,095
1123,713	16,073	384,423	267,851
1124,727	15,978	384,204	267,524
1125,742	15,893	383,870	267,133
1126,757	15,682	383,689	266,648
1127,771	15,607	383,372	266,286
1128,786	15,580	383,088	266,022
1129,800	15,504	382,827	265,697
1130,815	15,590	382,705	265,725
1131,830	15,753	382,676	265,939
1132,844	15,833	382,558	265,961
1133,859	15,917	382,349	265,924
1134,873	15,945	382,108	265,777
1135,888	15,915	381,962	265,605
1136,903	15,963	381,758	265,515
1137,917	15,906	381,435	265,178
1138,932	15,901	381,145	264,944
1139,946	16,070	381,056	265,125
1140,961	16,182	380,893	265,164
1141,975	16,157	380,643	264,928
1142,990	16,073	380,324	264,550
1144,005	16,041	380,080	264,307
1145,019	16,015	379,894	264,113
1146,034	16,002	379,665	263,910
1147,048	16,044	379,517	263,850
1148,063	16,190	379,310	263,911
1149,078	16,004	379,003	263,383
1150,092	15,794	378,711	262,830
1151,107	15,729	378,461	262,530
1152,121	15,725	378,167	262,298
1153,136	15,716	377,818	262,018
1154,151	15,578	377,618	261,641
1155,165	15,507	377,250	261,252
1156,180	15,417	376,938	260,874
1157,194	15,292	376,642	260,452
1158,209	15,369	376,521	260,465
1159,224	15,909	376,437	261,221
1160,238	16,043	376,339	261,337
1161,253	15,854	376,078	260,841
1162,267	15,505	375,801	260,084
1163,282	15,497	375,526	259,858
1164,297	15,617	375,196	259,793
1165,311	15,654	375,038	259,718
1166,326	15,683	374,935	259,669
1167,340	15,839	374,749	259,757
1168,355	16,042	374,587	259,935
1169,370	16,069	374,458	259,863
1170,384	15,945	374,203	259,473
1171,399	15,897	374,012	259,244
1172,413	15,871	373,736	258,990
1173,428	15,920	373,491	258,872
1174,443	16,091	373,305	258,984
1175,457	16,097	373,155	258,865
1176,472	15,988	372,905	258,503
1177,486	15,925	372,732	258,262
1178,501	15,981	372,465	258,141
1179,515	16,003	372,148	257,931
1180,530	15,943	371,933	257,669
1181,545	15,732	371,790	257,224
1182,559	15,771	371,577	257,113
1183,574	15,860	371,325	257,052
1184,588	15,914	371,093	256,951
1185,603	15,934	370,943	256,854
1186,618	15,755	370,722	256,406
1187,632	15,884	370,473	256,407
1188,647	15,851	370,255	256,183
1189,661	15,842	370,007	255,976
1190,676	16,009	369,875	256,115
1191,691	16,172	369,619	256,164
1192,705	15,964	369,370	255,653
1193,720	15,821	369,143	255,256
1194,734	15,797	369,002	255,099
1195,749	15,973	368,884	255,261
1196,764	16,145	368,709	255,379
1197,778	16,181	368,463	255,240
1198,793	16,159	368,165	254,978
1199,807	16,034	367,975	254,636
1200,822	16,050	367,822	254,531
1201,837	16,151	367,590	254,501
1202,851	16,056	367,374	254,184
1203,866	15,931	367,027	253,733
1204,880	15,645	366,768	253,102
1205,895	15,525	366,623	252,798
1206,910	15,667	366,506	252,910
1207,924	15,798	366,330	252,962
1208,939	15,997	366,142	253,109
1209,953	16,115	366,005	253,169
1210,968	16,216	365,809	253,163
1211,983	16,107	365,619	252,846
1212,997	16,044	365,384	252,566
1214,012	16,195	365,203	252,645
1215,026	16,081	364,969	252,289
1216,041	16,005	364,647	251,932
1217,056	15,892	364,321	251,515
1218,070	15,706	364,118	251,075
1219,085	15,694	364,039	250,980
1220,099	15,691	363,775	250,772
1221,114	15,678	363,530	250,561
1222,128	15,671	363,309	250,376
1223,143	15,591	363,135	250,115
1224,158	15,653	362,907	250,029
1225,172	15,568	362,621	249,682
1226,187	15,724	362,395	249,737
1227,201	15,625	362,228	249,453
1228,216	15,341	361,979	248,838
1229,231	15,333	361,722	248,628
1230,245	15,497	361,554	248,732
1231,260	15,596	361,413	248,761
1232,274	15,736	361,125	248,747
1233,289	15,706	360,984	248,585
1234,304	15,669	360,713	248,321
1235,318	15,364	360,492	247,696
1236,333	15,210	360,281	247,301
1237,347	15,460	360,125	247,542
1238,362	15,541	359,964	247,528
1239,377	15,357	359,712	247,062
1240,391	15,248	359,484	246,724
1241,406	15,535	359,357	247,037
1242,420	15,743	359,169	247,192
1243,435	15,777	358,900	247,035
1244,450	15,475	358,681	246,418
1245,464	15,431	358,433	246,162
1246,479	15,372	358,232	245,915
1247,493	15,351	358,038	245,730
1248,508	15,408	357,796	245,626
1249,523	15,474	357,654	245,602
1250,537	15,607	357,509	245,675
1251,552	15,765	357,283	245,729
1252,566	15,666	356,987	245,359
1253,581	15,633	356,771	245,142
1254,596	15,679	356,691	245,132
1255,610	15,513	356,485	244,726
1256,625	15,447	356,191	244,407
1257,639	15,679	356,032	244,614
1258,654	15,756	355,746	244,508
1259,668	15,493	355,504	243,938
1260,683	15,325	355,309	243,539
1261,698	15,574	355,153	243,771
1262,712	15,704	355,076	243,885
1263,727	15,818	354,857	243,879
1264,741	15,643	354,569	243,405
1265,756	15,512	354,331	243,031
1266,771	15,602	354,173	243,031
1267,785	15,698	354,052	243,066
1268,800	15,705	353,879	242,936
1269,814	15,707	353,776	242,846
1270,829	15,868	353,599	242,936
1271,844	15,847	353,423	242,763
1272,858	15,937	353,208	242,724
1273,873	16,055	353,050	242,764
1274,887	16,303	352,888	242,988
1275,902	16,514	352,778	243,194
1276,917	16,491	352,543	242,977
1277,931	16,190	352,216	242,298
1278,946	16,049	352,019	241,939
1279,960	16,194	352,021	242,126
1280,975	16,296	351,872	242,149
1281,990	16,310	351,625	241,978
1283,004	16,447	351,430	242,019
1284,019	16,196	351,234	241,502
1285,033	16,124	350,995	241,214
1286,048	16,111	350,790	241,033
1287,063	16,137	350,627	240,938
1288,077	16,192	350,445	240,869
1289,092	16,202	350,310	240,769
1290,106	16,484	350,158	241,046
1291,121	16,366	349,799	240,610
1292,136	15,884	349,559	239,736
1293,150	15,875	349,341	239,553
1294,165	16,215	349,179	239,904
1295,179	16,328	349,017	239,933
1296,194	16,307	348,932	239,823
1297,208	16,398	348,694	239,766
1298,223	16,219	348,414	239,300
1299,238	16,176	348,193	239,067
1300,252	16,250	348,061	239,059
1301,267	16,350	347,865	239,045
1302,281	16,378	347,593	238,877
1303,296	16,400	347,408	238,758
1304,311	16,350	347,213	238,534
1305,325	16,259	346,931	238,190
1306,340	15,926	346,743	237,570
1307,354	16,059	346,600	237,639
1308,369	16,270	346,483	237,835
1309,384	16,364	346,308	237,826
1310,398	16,382	346,016	237,630
1311,413	16,280	345,848	237,351
1312,427	16,415	345,746	237,449
1313,442	16,313	345,463	237,089
1314,457	16,150	345,237	236,684
1315,471	16,149	345,097	236,567
1316,486	16,261	344,992	236,630
1317,500	16,600	344,844	236,983
1318,515	16,596	344,712	236,866
1319,530	16,459	344,452	236,475
1320,544	16,234	344,235	235,990
1321,559	16,279	344,080	235,926
1322,573	16,561	343,927	236,194
1323,588	16,571	343,717	236,043
1324,603	16,361	343,504	235,583
1325,617	16,282	343,330	235,333
1326,632	16,450	343,180	235,443
1327,646	16,467	343,022	235,337
1328,661	16,518	342,828	235,254
1329,676	16,425	342,528	234,899
1330,690	16,327	342,256	234,555
1331,705	16,246	342,001	234,247
1332,719	16,182	341,808	234,005
1333,734	16,189	341,632	233,875
1334,749	16,271	341,450	233,842
1335,763	16,387	341,354	233,916
1336,778	16,622	341,178	234,101
1337,792	16,497	340,995	233,781
1338,807	16,402	340,788	233,487
1339,821	16,475	340,592	233,434
1340,836	16,804	340,523	233,819
1341,851	17,098	340,389	234,113
1342,865	16,925	340,179	233,709
1343,880	16,714	339,903	233,207
1344,894	16,661	339,714	232,985
1345,909	16,620	339,502	232,762
1346,924	16,606	339,239	232,541
1347,938	16,451	339,046	232,177
1348,953	16,580	338,903	232,235
1349,967	16,815	338,767	232,443
1350,982	16,858	338,666	232,413
1351,997	16,810	338,366	232,120
1353,011	16,743	338,189	231,887
1354,026	16,860	338,117	231,977
1355,040	16,996	338,048	232,095
1356,055	17,183	337,862	232,203
1357,070	17,060	337,596	231,831
1358,084	16,915	337,384	231,468
1359,099	17,068	337,149	231,493
1360,113	17,089	336,871	231,311
1361,128	17,123	336,720	231,233
1362,143	17,354	336,644	231,475
1363,157	17,591	336,476	231,662
1364,172	17,409	336,220	231,218
1365,186	17,382	336,063	231,052
1366,201	17,654	335,835	231,244
1367,216	17,576	335,690	231,019
1368,230	17,483	335,465	230,716
1369,245	17,379	335,179	230,359
1370,259	17,192	334,946	229,925
1371,274	17,235	334,852	229,899
1372,289	17,239	334,776	229,832
1373,303	17,340	334,710	229,902
1374,318	17,340	334,522	229,753
1375,332	17,255	334,321	229,479
1376,347	17,262	334,125	229,334
1377,361	17,250	333,908	229,149
1378,376	17,385	333,765	229,212
1379,391	17,489	333,655	229,257
1380,405	17,515	333,394	229,093
1381,420	16,774	332,877	227,721
1382,434	15,977	332,424	226,320
1383,449	16,144	332,268	226,419
1384,464	16,413	332,241	226,741
1385,478	16,864	332,263	227,341
1386,493	17,200	332,217	227,740
1387,507	17,592	332,155	228,202
1388,522	17,617	331,967	228,086
1389,537	17,589	331,690	227,839
1390,551	17,531	331,462	227,584
1391,566	17,059	331,147	226,718
1392,580	16,930	330,890	226,350
1393,595	17,266	330,827	226,735
1394,610	17,748	330,861	227,381
1395,624	17,899	330,789	227,512
1396,639	17,954	330,601	227,436
1397,653	18,048	330,397	227,400
1398,668	18,028	330,232	227,240
1399,683	17,916	330,019	226,925
1400,697	17,961	329,816	226,825
1401,712	17,931	329,601	226,617
1402,726	17,999	329,338	226,507
1403,741	17,983	329,135	226,326
1404,756	17,926	328,936	226,093
1405,770	17,890	328,702	225,865
1406,785	17,835	328,540	225,661
1407,799	17,867	328,284	225,507
1408,814	17,800	328,062	225,246
1409,829	17,781	327,971	225,139
1410,843	17,867	327,719	225,060
1411,858	18,010	327,358	224,980
1412,872	18,000	326,694	224,491
1413,887	17,937	326,061	223,954
1414,901	17,874	325,681	223,590
1415,916	17,951	325,394	223,474
1416,931	17,925	325,159	223,259
1417,945	17,792	324,870	222,867
1418,960	17,832	324,657	222,753
1419,974	17,938	324,394	222,691
1420,989	17,979	324,159	222,563
1422,004	17,914	324,014	222,360
1423,018	17,871	323,792	222,132
1424,033	17,914	323,563	222,010
1425,047	18,005	323,338	221,955
1426,062	18,013	323,089	221,775
1427,077	17,495	322,745	220,847
1428,091	16,918	322,358	219,816
1429,106	16,745	321,984	219,316
1430,120	16,825	321,745	219,238
1431,135	16,642	321,512	218,824
1432,150	16,621	321,283	218,621
1433,164	16,650	321,092	218,509
1434,179	16,628	320,871	218,311
1435,193	16,703	320,655	218,241
1436,208	16,922	320,604	218,469
1437,223	17,377	320,628	219,053
1438,237	17,953	320,556	219,726
1439,252	17,834	320,300	219,377
1440,266	17,164	319,837	218,180
1441,281	16,572	319,429	217,123
1442,296	16,375	319,278	216,748
1443,310	16,526	319,162	216,845
1444,325	17,266	319,203	217,802
1445,339	18,216	319,409	219,141
1446,354	19,009	319,707	220,342
1447,369	19,954	319,918	221,677
1448,383	21,005	320,053	223,097
1449,398	21,529	319,996	223,709
1450,412	21,094	319,644	222,887
1451,427	20,293	319,071	221,445
1452,441	19,677	318,541	220,274
1453,456	19,051	318,140	219,179
1454,471	18,558	317,755	218,267
1455,485	18,021	317,359	217,294
1456,500	17,815	317,180	216,889
1457,514	18,051	317,150	217,149
1458,529	18,454	317,014	217,549
1459,544	18,602	316,809	217,577
1460,558	18,457	316,530	217,182
1461,573	17,652	316,126	215,866
1462,587	16,892	315,718	214,608
1463,602	17,061	315,488	214,646
1464,617	17,590	315,584	215,361
1465,631	18,181	315,745	216,199
1466,646	18,252	315,558	216,142
1467,660	17,798	315,076	215,220
1468,675	17,210	314,633	214,157
1469,690	16,765	314,233	213,306
1470,704	16,187	313,870	212,313
1471,719	15,918	313,618	211,785
1472,733	16,055	313,496	211,857
1473,748	16,774	313,673	212,861
1474,763	17,941	313,937	214,488
1475,777	18,601	313,849	215,239
1476,792	18,656	313,606	215,120
1477,806	18,719	313,346	215,002
1478,821	18,669	313,149	214,786
1479,836	18,568	313,002	214,540
1480,850	18,602	312,789	214,418
1481,865	18,607	312,623	214,291
1482,879	18,672	312,428	214,219
1483,894	18,454	312,896	214,248
1484,909	18,060	316,369	216,109
1485,923	18,519	321,264	220,022
1486,938	18,716	323,722	221,941
1487,952	18,579	324,019	221,947
1488,967	18,618	323,793	221,823
1489,982	18,583	323,635	221,651
1490,996	18,539	323,516	221,492
1492,011	18,663	323,373	221,535
1493,025	18,590	323,252	221,339
1494,040	18,577	323,041	221,158
1495,054	18,639	322,787	221,045
1496,069	18,587	322,564	220,806
1497,084	18,537	322,348	220,574
1498,098	18,511	322,146	220,382
1499,113	18,559	321,892	220,251
1500,127	18,630	321,646	220,154
1501,142	18,550	321,523	219,948
1502,157	18,839	321,357	220,185
1503,171	19,067	321,177	220,334
1504,186	18,947	320,852	219,938
1505,200	18,516	320,512	219,135
1506,215	18,371	320,335	218,810
1507,230	18,957	320,363	219,557
1508,244	19,419	320,314	220,095
1509,259	19,872	320,282	220,630
1510,273	19,934	320,140	220,592
1511,288	19,593	319,699	219,835
1512,303	19,373	319,522	219,414
1513,317	19,327	319,290	219,177
1514,332	18,823	318,756	218,151
1515,346	17,776	318,119	216,367
1516,361	17,006	317,567	214,999
1517,376	16,742	317,239	214,423
1518,390	16,510	316,955	213,918
1519,405	15,964	316,650	213,004
1520,419	16,446	316,607	213,564
1521,434	17,018	316,695	214,328
1522,449	17,115	316,540	214,326
1523,463	17,036	316,314	214,054
1524,478	17,045	316,146	213,934
1525,492	17,031	315,945	213,761
1526,507	17,048	315,750	213,632
1527,522	17,042	315,597	213,502
1528,536	17,150	315,305	213,421
1529,551	17,054	315,132	213,165
1530,565	17,025	314,970	213,000
1531,580	17,030	314,801	212,872
1532,594	16,699	314,638	212,328
1533,609	16,749	314,420	212,225
1534,624	16,908	314,198	212,256
1535,638	16,901	313,961	212,067
1536,653	16,987	313,803	212,049
1537,667	16,914	313,706	211,875
1538,682	16,938	313,495	211,743
1539,697	16,707	313,283	211,293
1540,711	16,836	313,111	211,320
1541,726	17,072	312,872	211,433
1542,740	16,857	312,611	210,971
1543,755	16,723	312,461	210,684
1544,770	16,803	312,270	210,636
1545,784	16,868	312,026	210,533
1546,799	16,756	311,854	210,261
1547,813	16,809	311,671	210,184
1548,828	16,733	311,550	209,988
1549,843	16,885	311,427	210,077
1550,857	16,771	311,126	209,714
1551,872	16,601	310,904	209,335
1552,886	16,518	310,759	209,117
1553,901	16,689	310,621	209,216
1554,916	16,602	310,449	208,974
1555,930	16,406	310,236	208,570
1556,945	16,660	310,113	208,783
1557,959	16,748	309,919	208,742
1558,974	16,674	309,639	208,444
1559,989	16,520	309,406	208,079
1561,003	16,675	309,304	208,183
1562,018	16,696	309,179	208,106
1563,032	16,714	308,933	207,944
1564,047	16,761	308,699	207,826
1565,062	16,673	308,533	207,588
1566,076	16,447	308,334	207,158
1567,091	16,623	308,090	207,192
1568,105	16,809	307,932	207,295
1569,120	16,589	307,689	206,844
1570,134	16,302	307,455	206,317
1571,149	16,348	307,265	206,227
1572,164	16,373	307,061	206,103
1573,178	16,286	306,934	205,893
1574,193	16,582	306,841	206,174
1575,207	16,741	306,698	206,253
1576,222	16,492	306,525	205,815
1577,237	16,330	306,278	205,435
1578,251	16,399	306,072	205,362
1579,266	16,480	305,910	205,333
1580,280	16,325	305,788	205,045
1581,295	16,242	305,575	204,784
1582,310	16,214	305,355	204,584
1583,324	16,249	305,098	204,436
1584,339	16,305	304,960	204,393
1585,353	16,350	304,863	204,365
1586,368	16,380	304,702	204,275
1587,383	16,292	304,461	203,989
1588,397	16,423	304,361	204,062
1589,412	16,369	304,216	203,881
1590,426	16,125	304,038	203,450
1591,441	16,264	303,959	203,547
1592,456	16,379	303,777	203,546
1593,470	16,223	303,479	203,140
1594,485	16,013	303,289	202,742
1595,499	16,018	303,195	202,668
1596,514	16,126	303,026	202,667
1597,529	16,366	302,867	202,830
1598,543	16,292	302,696	202,609
1599,558	16,183	302,473	202,311
1600,572	16,240	302,277	202,231
1601,587	16,141	302,124	201,991
1602,602	16,101	301,938	201,801
1603,616	16,134	301,739	201,690
1604,631	16,093	301,528	201,482
1605,645	16,199	301,374	201,488
1606,660	16,132	301,270	201,321
1607,674	16,091	301,073	201,123
1608,689	16,233	300,875	201,142
1609,704	16,242	300,671	200,998
1610,718	16,149	300,548	200,787
1611,733	16,084	300,481	200,647
1612,747	16,146	300,276	200,567
1613,762	16,007	299,963	200,175
1614,777	15,703	299,766	199,665
1615,791	15,907	299,643	199,807
1616,806	15,920	299,537	199,734
1617,820	15,920	299,348	199,590
1618,835	15,917	299,136	199,428
1619,850	16,182	298,959	199,606
1620,864	16,112	298,825	199,415
1621,879	16,069	298,654	199,234
1622,893	16,119	298,479	199,158
1623,908	15,999	298,370	198,925
1624,923	16,106	298,182	198,909
1625,937	16,087	298,030	198,768
1626,952	16,009	297,920	198,585
1627,966	16,186	297,743	198,658
1628,981	16,181	297,554	198,508
1629,996	16,212	297,382	198,413
1631,010	16,086	297,184	198,115
1632,025	15,921	297,002	197,782
1633,039	15,834	296,887	197,586
1634,054	15,947	296,715	197,586
1635,069	16,134	296,547	197,676
1636,083	15,988	296,356	197,360
1637,098	16,164	296,165	197,422
1638,112	16,190	296,017	197,336
1639,127	16,114	295,852	197,120
1640,142	16,105	295,628	196,943
1641,156	16,009	295,426	196,678
1642,171	15,987	295,228	196,504
1643,185	15,966	295,116	196,387
1644,200	16,232	294,975	196,586
1645,215	16,258	294,743	196,444
1646,229	16,114	294,604	196,167
1647,244	16,056	294,429	195,966
1648,258	16,175	294,242	195,962
1649,273	16,182	294,109	195,865
1650,287	16,240	293,954	195,811
1651,302	16,163	293,757	195,573
1652,317	16,190	293,600	195,482
1653,331	16,000	293,463	195,154
1654,346	16,161	293,301	195,216
1655,360	16,168	293,101	195,073
1656,375	16,071	292,868	194,789
1657,390	15,988	292,671	194,544
1658,404	16,113	292,502	194,559
1659,419	16,025	292,357	194,344
1660,433	15,949	292,142	194,097
1661,448	15,982	291,968	194,001
1662,463	16,002	291,869	193,941
1663,477	16,072	291,657	193,864
1664,492	16,059	291,427	193,680
1665,506	15,999	291,365	193,552
1666,521	16,182	291,255	193,672
1667,536	16,055	291,126	193,423
1668,550	16,087	290,954	193,328
1669,565	16,208	290,715	193,291
1670,579	16,132	290,571	193,092
1671,594	16,105	290,372	192,911
1672,609	16,094	290,135	192,724
1673,623	15,881	289,970	192,354
1674,638	15,900	289,800	192,246
1675,652	15,752	289,710	192,001
1676,667	15,907	289,579	192,073
1677,682	16,015	289,382	192,049
1678,696	15,898	289,222	191,793
1679,711	15,808	289,008	191,530
1680,725	15,884	288,802	191,464
1681,740	15,836	288,726	191,342
1682,755	15,956	288,546	191,342
1683,769	15,786	288,374	191,018
1684,784	15,659	288,229	190,761
1685,798	16,013	288,071	191,041
1686,813	16,075	287,918	190,993
1687,827	15,929	287,731	190,686
1688,842	15,845	287,600	190,488
1689,857	15,844	287,458	190,375
1690,871	15,874	287,260	190,262
1691,886	15,735	287,079	189,968
1692,900	15,677	286,876	189,751
1693,915	15,574	286,644	189,464
1694,930	15,606	286,523	189,405
1695,944	15,773	286,437	189,519
1696,959	15,688	286,266	189,294
1697,973	15,680	286,090	189,151
1698,988	15,786	285,966	189,171
1700,003	15,851	285,812	189,126
1701,017	15,769	285,626	188,894
1702,032	15,649	285,496	188,657
1703,046	15,645	285,321	188,519
1704,061	15,684	285,145	188,431
1705,076	15,937	284,979	188,588
1706,090	15,995	284,820	188,531
1707,105	15,845	284,637	188,226
1708,119	15,715	284,457	187,944
1709,134	15,746	284,334	187,881
1710,149	15,837	284,162	187,852
1711,163	15,880	284,005	187,780
1712,178	15,864	283,902	187,677
1713,192	15,932	283,784	187,659
1714,207	16,166	283,663	187,822
1715,222	16,289	283,509	187,840
1716,236	16,201	283,353	187,622
1717,251	16,130	283,124	187,375
1718,265	16,097	282,885	187,164
1719,280	16,063	282,768	187,032
1720,295	16,131	282,645	187,010
1721,309	16,160	282,469	186,909
1722,324	16,174	282,306	186,801
1723,338	16,123	282,136	186,614
1724,353	16,013	282,028	186,405
1725,367	16,008	281,922	186,313
1726,382	15,917	281,674	186,032
1727,397	15,806	281,450	185,746
1728,411	15,750	281,316	185,579
1729,426	15,948	281,172	185,686
1730,440	15,912	281,009	185,521
1731,455	15,925	280,894	185,443
1732,470	15,953	280,794	185,392
1733,484	16,011	280,640	185,338
1734,499	15,988	280,438	185,163
1735,513	15,993	280,292	185,055
1736,528	15,944	280,188	184,917
1737,543	15,938	279,937	184,728
1738,557	15,850	279,712	184,467
1739,572	15,761	279,557	184,251
1740,586	15,903	279,429	184,305
1741,601	15,694	279,273	183,958
1742,616	15,631	279,047	183,723
1743,630	15,650	278,973	183,679
1744,645	15,715	278,912	183,695
1745,659	15,967	278,717	183,824
1746,674	15,829	278,548	183,546
1747,689	15,577	278,387	183,150
1748,703	15,773	278,223	183,238
1749,718	15,853	278,088	183,220
1750,732	15,932	277,990	183,225
1751,747	15,923	277,837	183,098
1752,762	16,005	277,647	183,046
1753,776	15,979	277,448	182,871
1754,791	15,817	277,261	182,555
1755,805	15,587	277,070	182,165
1756,820	15,680	276,871	182,118
1757,835	15,921	276,785	182,306
1758,849	16,124	276,731	182,475
1759,864	16,193	276,576	182,430
1760,878	16,050	276,370	182,125
1761,893	15,813	276,160	181,713
1762,908	15,983	276,030	181,795
1763,922	16,011	275,917	181,735
1764,937	16,031	275,732	181,619
1765,951	16,131	275,591	181,618
1766,966	16,220	275,447	181,602
1767,980	16,110	275,255	181,342
1768,995	16,178	275,121	181,310
1770,010	16,134	274,935	181,124
1771,024	16,104	274,757	180,959
1772,039	16,164	274,681	180,957
1773,053	16,113	274,527	180,785
1774,068	16,068	274,302	180,573
1775,083	16,181	274,072	180,526
1776,097	16,198	273,913	180,423
1777,112	16,016	273,767	180,117
1778,126	15,973	273,594	179,941
1779,141	16,007	273,493	179,895
1780,156	15,961	273,353	179,738
1781,170	15,833	273,165	179,463
1782,185	15,811	273,004	179,317
1783,199	15,864	272,801	179,224
1784,214	15,812	272,609	179,028
1785,229	15,920	272,541	179,082
1786,243	16,036	272,363	179,072
1787,258	15,950	272,200	178,858
1788,272	16,033	272,105	178,868
1789,287	15,948	271,902	178,628
1790,302	15,782	271,737	178,328
1791,316	15,852	271,553	178,266
1792,331	15,907	271,391	178,202
1793,345	15,848	271,177	177,983
1794,360	15,937	271,039	177,971
1795,375	15,988	271,023	177,999
1796,389	15,874	270,889	177,773
1797,404	15,753	270,603	177,444
1798,418	15,663	270,413	177,208
1799,433	15,719	270,327	177,194
1800,448	15,702	270,130	177,032
1801,462	15,868	269,915	177,050
1802,477	15,909	269,802	177,004
1803,491	15,806	269,679	176,799
1804,506	16,006	269,523	176,891
1805,520	15,964	269,383	176,739
1806,535	15,752	269,209	176,387
1807,550	15,716	269,124	176,278
1808,564	15,937	269,021	176,426
1809,579	15,951	268,784	176,270
1810,593	15,942	268,619	176,137
1811,608	15,849	268,507	175,951
1812,623	15,962	268,378	175,970
1813,637	15,997	268,174	175,856
1814,652	15,988	267,967	175,696
1815,666	15,913	267,866	175,535
1816,681	15,899	267,714	175,406
1817,696	16,056	267,597	175,477
1818,710	16,063	267,509	175,411
1819,725	16,186	267,365	175,429
1820,739	16,139	267,220	175,269
1821,754	16,151	267,102	175,189
1822,769	16,101	266,979	175,041
1823,783	16,137	266,842	174,974
1824,798	16,206	266,655	174,906
1825,812	16,231	266,473	174,798
1826,827	16,205	266,326	174,659
1827,842	16,249	266,197	174,604
1828,856	16,137	266,042	174,371
1829,871	16,218	265,836	174,304
1830,885	16,172	265,697	174,150
1831,900	16,225	265,578	174,112
1832,915	16,187	265,410	173,947
1833,929	16,178	265,264	173,827
1834,944	16,173	265,154	173,734
1835,958	16,129	264,993	173,568
1836,973	16,143	264,868	173,485
1837,988	16,163	264,762	173,421
1839,002	16,390	264,647	173,563
1840,017	16,344	264,525	173,420
1841,031	16,450	264,343	173,395
1842,046	16,389	264,214	173,232
1843,060	16,355	264,024	173,057
1844,075	16,152	263,811	172,695
1845,090	16,051	263,651	172,471
1846,104	16,262	263,481	172,561
1847,119	16,336	263,373	172,550
1848,133	16,283	263,265	172,410
1849,148	16,143	263,121	172,158
1850,163	16,131	262,955	172,022
1851,177	16,110	262,786	171,874
1852,192	16,312	262,644	171,971
1853,206	16,418	262,504	171,973
1854,221	16,316	262,322	171,735
1855,236	16,335	262,185	171,649
1856,250	16,240	262,062	171,457
1857,265	15,925	261,876	171,001
1858,279	15,870	261,637	170,773
1859,294	15,905	261,484	170,694
1860,309	16,082	261,380	170,790
1861,323	16,203	261,244	170,809
1862,338	16,145	261,123	170,655
1863,352	16,232	260,980	170,635
1864,367	16,362	260,840	170,660
1865,382	16,353	260,722	170,559
1866,396	16,291	260,583	170,390
1867,411	16,232	260,353	170,165
1868,425	16,308	260,198	170,125
1869,440	16,338	260,062	170,051
1870,455	16,299	259,914	169,900
1871,469	16,144	259,743	169,617
1872,484	16,007	259,595	169,369
1873,498	15,836	259,532	169,140
1874,513	16,084	259,379	169,274
1875,528	16,246	259,174	169,289
1876,542	16,050	259,014	168,972
1877,557	16,087	258,894	168,916
1878,571	16,104	258,722	168,806
1879,586	16,120	258,542	168,690
1880,600	16,119	258,471	168,627
1881,615	16,177	258,340	168,585
1882,630	16,265	258,180	168,554
1883,644	16,114	258,007	168,275
1884,659	16,032	257,755	168,014
1885,673	16,055	257,616	167,932
1886,688	16,078	257,504	167,867
1887,703	16,152	257,346	167,822
1888,717	16,117	257,187	167,669
1889,732	16,035	257,045	167,480
1890,746	16,095	256,944	167,459
1891,761	16,210	256,888	167,522
1892,776	16,472	256,806	167,714
1893,790	16,485	256,609	167,583
1894,805	16,395	256,386	167,334
1895,819	16,381	256,229	167,203
1896,834	16,260	256,096	166,981
1897,849	16,421	255,965	167,040
1898,863	16,329	255,846	166,857
1899,878	16,284	255,719	166,714
1900,892	16,432	255,529	166,722
1901,907	16,425	255,364	166,593
1902,922	16,137	255,202	166,188
1903,936	16,139	255,030	166,063
1904,951	16,389	254,955	166,247
1905,965	16,394	254,828	166,154
1906,980	16,344	254,646	165,971
1907,995	16,388	254,531	165,925
1909,009	16,460	254,393	165,891
1910,024	16,493	254,254	165,818
1911,038	16,389	254,103	165,603
1912,053	16,520	253,957	165,621
1913,068	16,567	253,819	165,563
1914,082	16,423	253,774	165,378
1915,097	16,415	253,695	165,303
1916,111	16,544	253,485	165,279
1917,126	16,462	253,301	165,063
1918,141	16,451	253,135	164,930
1919,155	16,576	253,035	164,972
1920,170	16,633	252,932	164,946
1921,184	16,577	252,825	164,808
1922,199	16,740	252,670	164,851
1923,213	16,853	252,495	164,832
1924,228	16,619	252,383	164,516
1925,243	16,710	252,297	164,534
1926,257	16,845	252,205	164,591
1927,272	16,821	252,062	164,459
1928,286	16,770	251,892	164,284
1929,301	16,735	251,738	164,136
1930,316	16,620	251,616	163,930
1931,330	16,627	251,464	163,823
1932,345	16,881	251,351	163,981
1933,359	17,003	251,232	164,007
1934,374	16,804	251,069	163,694
1935,389	16,662	250,943	163,460
1936,403	16,703	250,817	163,404
1937,418	16,731	250,681	163,327
1938,432	16,660	250,523	163,142
1939,447	16,652	250,410	163,045
1940,462	16,926	250,286	163,214
1941,476	17,040	250,130	163,208
1942,491	17,030	249,996	163,096
1943,505	16,859	249,885	162,845
1944,520	16,842	249,795	162,756
1945,535	16,883	249,611	162,661
1946,549	16,845	249,455	162,508
1947,564	16,863	249,298	162,408
1948,578	17,063	249,157	162,493
1949,593	17,130	249,011	162,449
1950,608	16,999	248,821	162,184
1951,622	16,895	248,753	162,027
1952,637	17,146	248,683	162,207
1953,651	17,118	248,509	162,052
1954,666	17,091	248,331	161,895
1955,681	17,100	248,209	161,811
1956,695	17,096	248,112	161,730
1957,710	16,994	247,970	161,525
1958,724	16,996	247,884	161,457
1959,739	17,069	247,735	161,415
1960,753	17,166	247,547	161,370
1961,768	17,259	247,446	161,378
1962,783	17,386	247,360	161,429
1963,797	17,340	247,224	161,282
1964,812	17,348	247,164	161,236
1965,826	17,368	247,043	161,162
1966,841	17,300	246,886	160,981
1967,856	17,354	246,735	160,919
1968,870	17,450	246,605	160,911
1969,885	17,101	246,457	160,470
1970,899	16,986	246,312	160,253
1971,914	17,097	246,150	160,238
1972,929	16,833	246,009	159,884
1973,943	16,962	245,894	159,916
1974,958	17,314	245,921	160,251
1975,972	18,158	246,067	161,128
1976,987	19,058	246,170	162,029
1978,002	19,404	246,207	162,364
1979,016	19,383	246,144	162,289
1980,031	19,768	246,072	162,589
1981,045	19,866	246,055	162,655
1982,060	19,809	245,803	162,421
1983,075	19,565	245,445	161,941
1984,089	18,960	245,135	161,156
1985,104	18,442	244,998	160,566
1986,118	18,799	244,952	160,856
1987,133	19,104	244,876	161,078
1988,148	18,706	244,699	160,575
1989,162	18,860	244,512	160,581
1990,177	18,704	244,361	160,323
1991,191	18,693	244,179	160,178
1992,206	18,754	244,039	160,130
1993,221	18,661	243,946	159,968
1994,235	18,796	243,810	159,990
1995,250	18,827	243,639	159,892
1996,264	18,880	243,511	159,843
1997,279	18,906	243,350	159,748
1998,293	18,790	243,220	159,541
1999,308	18,771	243,145	159,460
2000,323	18,741	242,989	159,316
2001,337	18,702	242,864	159,183
2002,352	18,601	242,723	158,984
2003,366	18,972	242,492	159,161
2004,381	19,375	241,580	158,920
2005,396	19,482	239,964	157,941
2006,410	19,078	238,771	156,774
2007,425	18,754	238,371	156,203
2008,439	18,626	238,254	155,996
2009,454	18,749	238,244	156,088
2010,469	18,805	238,164	156,072
2011,483	18,815	238,006	155,964
2012,498	18,798	237,869	155,845
2013,512	18,767	237,741	155,719
2014,527	18,719	237,635	155,592
2015,542	18,816	237,532	155,598
2016,556	18,621	237,300	155,257
2017,571	18,748	237,134	155,249
2018,585	18,840	236,913	155,174
2019,600	18,727	236,645	154,883
2020,615	18,919	236,398	154,881
2021,629	18,887	236,098	154,642
2022,644	18,862	235,848	154,441
2023,658	19,142	235,644	154,545
2024,673	18,794	235,357	154,031
2025,688	18,595	235,109	153,677
2026,702	19,004	235,019	153,971
2027,717	19,540	234,968	154,404
2028,731	19,937	234,849	154,667
2029,746	20,041	234,691	154,641
2030,761	19,855	234,473	154,318
2031,775	19,505	234,289	153,872
2032,790	19,547	234,191	153,830
2033,804	19,088	233,995	153,280
2034,819	18,193	233,633	152,233
2035,834	17,444	233,305	151,340
2036,848	17,055	233,102	150,849
2037,863	17,124	233,030	150,850
2038,877	17,231	232,980	150,900
2039,892	17,102	232,917	150,732
2040,906	17,288	232,833	150,829
2041,921	17,386	232,784	150,871
2042,936	17,363	232,706	150,786
2043,950	17,439	232,664	150,813
2044,965	17,564	232,608	150,875
2045,979	17,253	232,535	150,537
2046,994	17,260	232,449	150,475
2048,009	17,251	232,302	150,358
2049,023	17,272	232,121	150,248
2050,038	17,130	232,015	150,040
2051,052	17,175	231,876	149,976
2052,067	17,083	231,737	149,792
2053,082	17,141	231,630	149,761
2054,096	17,259	231,461	149,742
2055,111	17,166	231,300	149,543
2056,125	17,053	231,092	149,296
2057,140	17,188	230,882	149,266
2058,155	17,199	230,629	149,099
2059,169	17,063	230,314	148,763
2060,184	17,102	230,166	148,688
2061,198	17,386	229,910	148,758
2062,213	17,173	229,654	148,393
2063,228	16,886	229,420	147,978
2064,242	16,904	229,161	147,813
2065,257	17,007	228,890	147,715
2066,271	16,770	228,747	147,404
2067,286	16,824	228,600	147,344
2068,301	17,041	228,437	147,413
2069,315	17,086	228,351	147,383
2070,330	16,913	228,191	147,117
2071,344	16,729	228,039	146,847
2072,359	16,698	228,000	146,782
2073,374	16,855	228,034	146,927
2074,388	16,825	228,039	146,891
2075,403	16,747	227,978	146,771
2076,417	16,851	227,961	146,837
2077,432	16,877	227,974	146,856
2078,446	16,909	227,852	146,791
2079,461	16,750	227,726	146,560
2080,476	16,758	227,724	146,552
2081,490	16,731	227,679	146,487
2082,505	16,770	227,571	146,438
2083,519	17,013	227,431	146,545
2084,534	16,912	227,286	146,352
2085,549	16,683	227,110	146,028
2086,563	16,795	226,961	146,016
2087,578	17,013	226,817	146,098
2088,592	16,942	226,658	145,922
2089,607	16,675	226,531	145,597
2090,622	16,656	226,413	145,492
2091,636	16,799	226,222	145,479
2092,651	16,527	226,043	145,118
2093,665	16,514	225,892	144,996
2094,680	16,840	225,687	145,132
2095,695	16,619	225,468	144,789
2096,709	16,475	225,287	144,536
2097,724	16,623	225,079	144,517
2098,738	16,431	224,820	144,174
2099,753	16,293	224,614	143,912
2100,768	16,425	224,435	143,896
2101,782	16,618	224,192	143,893
2102,797	16,530	223,976	143,666
2103,811	16,359	223,809	143,401
2104,826	16,567	223,688	143,487
2105,841	16,580	223,531	143,385
2106,855	16,288	223,353	143,011
2107,870	16,171	223,248	142,832
2108,884	16,590	223,172	143,125
2109,899	16,533	223,050	142,986
2110,914	16,562	223,109	143,035
2111,928	16,330	223,131	142,841
2112,943	16,341	223,152	142,850
2113,957	16,370	223,148	142,860
2114,972	16,363	223,062	142,787
2115,986	16,417	223,067	142,823
2117,001	16,585	223,119	142,986
2118,016	16,487	223,048	142,844
2119,030	16,214	222,901	142,507
2120,045	16,155	222,730	142,336
2121,059	16,093	222,684	142,242
2122,074	16,156	222,629	142,246
2123,089	16,310	222,436	142,241
2124,103	16,215	222,243	142,025
2125,118	16,137	222,021	141,805
2126,132	16,029	221,884	141,614
2127,147	16,251	221,729	141,689
2128,162	16,493	221,526	141,749
2129,176	16,391	221,387	141,562
2130,191	16,208	221,218	141,289
2131,205	16,125	221,011	141,074
2132,220	16,328	220,761	141,072
2133,235	16,217	220,578	140,850
2134,249	16,239	220,390	140,736
2135,264	16,201	220,218	140,582
2136,278	16,094	220,000	140,341
2137,293	16,064	219,692	140,107
2138,308	16,095	219,508	140,004
2139,322	16,225	219,397	140,028
2140,337	16,402	219,255	140,072
2141,351	16,382	219,129	139,962
2142,366	16,470	218,961	139,916
2143,381	16,471	218,827	139,818
2144,395	16,460	218,748	139,746
2145,410	16,503	218,728	139,757
2146,424	16,315	218,659	139,546
2147,439	16,313	218,536	139,453
2148,454	16,220	218,514	139,349
2149,468	16,347	218,459	139,406
2150,483	16,211	218,411	139,251
2151,497	15,924	218,448	139,026
2152,512	16,031	218,423	139,087
2153,526	16,054	218,432	139,099
2154,541	16,282	218,425	139,270
2155,556	16,473	218,296	139,333
2156,570	16,435	218,214	139,237
2157,585	16,471	218,128	139,199
2158,599	16,470	218,043	139,132
2159,614	16,243	217,955	138,877
2160,629	16,282	217,840	138,823
2161,643	16,535	217,702	138,931
2162,658	16,528	217,514	138,792
2163,672	16,606	217,240	138,669
2164,687	16,521	216,997	138,432
2165,702	16,184	216,809	138,025
2166,716	16,434	216,618	138,095
2167,731	16,451	216,432	137,978
2168,745	16,560	216,332	137,991
2169,760	16,462	216,109	137,757
2170,775	16,560	215,861	137,667
2171,789	16,486	215,633	137,449
2172,804	16,357	215,376	137,168
2173,818	16,401	215,239	137,104
2174,833	16,282	215,034	136,865
2175,848	16,313	214,901	136,793
2176,862	16,348	214,786	136,737
2177,877	16,253	214,724	136,608
2178,891	16,318	214,587	136,561
2179,906	16,341	214,472	136,495
2180,921	16,091	214,425	136,251
2181,935	16,297	214,365	136,367
2182,950	16,344	214,237	136,311
2183,964	16,391	214,169	136,294
2184,979	16,361	214,105	136,217
2185,994	16,321	213,982	136,094
2187,008	16,213	213,937	135,966
2188,023	16,336	213,870	136,011
2189,037	16,206	213,837	135,874
2190,052	16,288	213,871	135,948
2191,067	16,468	213,821	136,051
2192,081	16,319	213,767	135,884
2193,096	16,240	213,705	135,769
2194,110	16,120	213,545	135,559
2195,125	16,116	213,398	135,450
2196,139	16,147	213,281	135,389
2197,154	16,129	213,281	135,362
2198,169	16,131	213,148	135,268
2199,183	16,119	212,970	135,133
2200,198	16,200	212,828	135,096
2201,212	16,114	212,710	134,939
2202,227	16,177	212,458	134,819
2203,242	15,993	212,148	134,463
2204,256	16,013	211,929	134,328
2205,271	16,057	211,735	134,229
2206,285	16,280	211,550	134,276
2207,300	15,987	211,384	133,927
2208,315	16,026	211,125	133,781
2209,329	16,028	210,848	133,596
2210,344	15,854	210,749	133,384
2211,358	15,960	210,622	133,376
2212,373	15,846	210,456	133,168
2213,388	16,095	210,373	133,300
2214,402	16,143	210,291	133,275
2215,417	16,042	210,221	133,139
2216,431	16,081	210,202	133,146
2217,446	16,053	210,134	133,069
2218,461	15,979	210,069	132,958
2219,475	16,082	210,040	133,008
2220,490	16,154	209,929	132,983
2221,504	16,297	209,853	133,037
2222,519	16,214	209,854	132,959
2223,534	16,105	209,872	132,874
2224,548	16,072	209,841	132,816
2225,563	16,015	209,724	132,685
2226,577	15,993	209,625	132,594
2227,592	15,932	209,561	132,494
2228,607	16,008	209,526	132,520
2229,621	16,165	209,394	132,548
2230,636	16,162	209,305	132,478
2231,650	16,106	209,185	132,345
2232,665	16,270	209,044	132,374
2233,679	16,176	208,982	132,248
2234,694	16,379	208,873	132,327
2235,709	16,372	208,728	132,217
2236,723	16,390	208,609	132,145
2237,738	16,418	208,476	132,071
2238,752	16,456	208,288	131,970
2239,767	16,398	208,115	131,803
2240,782	16,315	207,908	131,596
2241,796	16,359	207,629	131,442
2242,811	16,348	207,420	131,289
2243,825	16,369	207,259	131,192
2244,840	16,352	207,002	131,005
2245,855	16,306	206,757	130,803
2246,869	16,444	206,621	130,812
2247,884	16,219	206,435	130,508
2248,898	16,216	206,302	130,410
2249,913	16,225	206,257	130,378
2250,928	16,467	206,132	130,474
2251,942	16,336	205,940	130,240
2252,957	16,109	205,823	129,979
2253,971	15,874	205,811	129,779
2254,986	15,822	205,850	129,752
2256,001	16,108	205,837	129,952
2257,015	16,181	205,818	129,986
2258,030	16,281	205,763	130,016
2259,044	16,106	205,713	129,839
2260,059	16,133	205,594	129,772
2261,074	16,057	205,538	129,667
2262,088	15,977	205,453	129,540
2263,103	15,747	205,492	129,377
2264,117	16,066	205,497	129,613
2265,132	16,225	205,309	129,605
2266,147	16,009	205,182	129,348
2267,161	15,719	205,025	129,015
2268,176	15,876	204,860	129,021
2269,190	15,924	204,774	128,992
2270,205	16,154	204,681	129,098
2271,219	15,811	204,553	128,743
2272,234	15,870	204,461	128,719
2273,249	16,046	204,366	128,782
2274,263	16,259	204,127	128,783
2275,278	16,259	203,923	128,642
2276,292	16,013	203,827	128,383
2277,307	16,221	203,670	128,431
2278,322	16,113	203,466	128,210
2279,336	16,213	203,256	128,141
2280,351	16,109	202,995	127,886
2281,365	16,182	202,700	127,745
2282,380	16,040	202,493	127,496
2283,395	15,994	202,353	127,362
2284,409	16,199	202,236	127,432
2285,424	16,349	202,123	127,463
2286,438	16,233	201,979	127,273
2287,453	16,386	201,855	127,298
2288,468	16,397	201,763	127,238
2289,482	16,363	201,650	127,129
2290,497	16,451	201,526	127,106
2291,511	16,347	201,419	126,949
2292,526	16,285	201,465	126,920
2293,541	16,197	201,527	126,882
2294,555	16,530	201,506	127,108
2295,570	16,362	201,509	126,973
2296,584	16,320	201,435	126,883
2297,599	16,247	201,334	126,754
2298,614	16,182	201,228	126,626
2299,628	16,187	201,245	126,630
2300,643	16,000	201,209	126,456
2301,657	16,140	201,196	126,541
2302,672	15,924	201,099	126,307
2303,687	16,241	200,966	126,450
2304,701	16,258	200,849	126,378
2305,716	16,070	200,715	126,142
2306,730	15,807	200,628	125,879
2307,745	15,893	200,435	125,811
2308,760	15,909	200,222	125,679
2309,774	16,203	200,077	125,796
2310,789	16,103	199,905	125,602
2311,803	16,029	199,713	125,414
2312,818	15,874	199,557	125,191
2313,832	15,974	199,411	125,162
2314,847	16,027	199,228	125,075
2315,862	15,942	198,973	124,842
2316,876	15,861	198,729	124,617
2317,891	15,820	198,642	124,521
2318,905	16,052	198,452	124,563
2319,920	16,144	198,326	124,540
2320,935	16,069	198,284	124,448
2321,949	16,122	198,074	124,344
2322,964	16,190	197,923	124,288
2323,978	16,249	197,908	124,311
2324,993	16,261	197,705	124,182
2326,008	16,065	197,604	123,963
2327,022	16,003	197,576	123,889
2328,037	16,092	197,525	123,911
2329,051	16,230	197,359	123,898
2330,066	16,238	197,268	123,835
2331,081	16,191	197,185	123,738
2332,095	16,193	197,246	123,767
2333,110	16,170	197,318	123,784
2334,124	16,228	197,272	123,787
2335,139	15,946	197,270	123,568
2336,154	16,080	197,227	123,628
2337,168	16,164	197,161	123,638
2338,183	16,128	197,122	123,576
2339,197	16,474	197,024	123,757
2340,212	16,339	196,986	123,623
2341,227	16,464	196,892	123,645
2342,241	16,693	196,693	123,676
2343,256	16,654	196,595	123,574
2344,270	16,489	196,586	123,438
2345,285	16,310	196,368	123,160
2346,300	16,359	196,110	123,023
2347,314	16,251	195,923	122,815
2348,329	16,343	195,733	122,753
2349,343	16,180	195,562	122,516
2350,358	16,206	195,339	122,385
2351,372	16,475	195,157	122,454
2352,387	16,367	194,978	122,253
2353,402	16,269	194,712	122,005
2354,416	16,511	194,576	122,083
2355,431	16,506	194,470	122,003
2356,445	16,458	194,268	121,830
2357,460	16,450	194,158	121,744
2358,475	16,448	194,142	121,723
2359,489	16,464	194,068	121,677
2360,504	16,579	193,992	121,701
2361,518	16,562	193,910	121,627
2362,533	16,500	193,778	121,489
2363,548	16,480	193,657	121,388
2364,562	16,534	193,664	121,420
2365,577	16,526	193,588	121,356
2366,591	16,368	193,495	121,174
2367,606	16,280	193,361	121,016
2368,621	16,345	193,274	120,997
2369,635	16,509	193,219	121,070
2370,650	16,304	193,290	120,957
2371,664	16,465	193,275	121,052
2372,679	16,391	193,204	120,944
2373,694	16,426	193,108	120,898
2374,708	16,279	193,126	120,793
2375,723	16,281	193,043	120,732
2376,737	16,286	192,916	120,645
2377,752	16,162	192,814	120,482
2378,767	16,149	192,812	120,461
2379,781	16,269	192,682	120,456
2380,796	16,449	192,624	120,537
2381,810	16,598	192,520	120,568
2382,825	16,444	192,363	120,349
2383,840	16,388	192,111	120,141
2384,854	16,462	191,899	120,050
2385,869	16,430	191,776	119,940
2386,883	16,302	191,502	119,666
2387,898	16,391	191,295	119,589
2388,912	16,252	191,160	119,397
2389,927	16,325	191,005	119,341
2390,942	16,308	190,779	119,177
2391,956	16,100	190,576	118,893
2392,971	16,190	190,380	118,823
2393,985	16,427	190,266	118,908
2395,000	16,129	190,101	118,585
2396,015	16,132	189,975	118,499
2397,029	16,225	190,006	118,573
2398,044	16,280	190,061	118,635
2399,058	16,235	190,083	118,607
2400,073	16,310	189,996	118,594
2401,088	16,576	189,929	118,729
2402,102	16,492	189,928	118,659
2403,117	16,370	189,795	118,480
2404,131	16,543	189,670	118,513
2405,146	16,415	189,649	118,399
2406,161	16,404	189,644	118,378
2407,175	16,464	189,563	118,359
2408,190	16,385	189,558	118,290
2409,204	16,574	189,480	118,363
2410,219	16,536	189,312	118,221
2411,234	16,537	189,211	118,148
2412,248	16,576	189,226	118,175
2413,263	16,503	189,168	118,077
2414,277	16,414	189,085	117,952
2415,292	16,287	188,965	117,778
2416,307	16,249	188,897	117,699
2417,321	16,630	188,754	117,865
2418,336	16,567	188,653	117,747
2419,350	16,597	188,461	117,638
2420,365	16,660	188,265	117,549
2421,380	16,560	188,333	117,512
2422,394	16,710	188,158	117,496
2423,409	16,649	187,915	117,292
2424,423	16,662	187,602	117,096
2425,438	16,759	187,318	116,975
2426,452	16,607	187,177	116,772
2427,467	16,499	186,943	116,540
2428,482	16,621	186,785	116,516
2429,496	16,663	186,690	116,475
2430,511	16,828	186,539	116,484
2431,525	16,766	186,478	116,393
2432,540	16,453	186,330	116,075
2433,555	16,776	186,167	116,185
2434,569	16,971	186,113	116,275
2435,584	17,021	186,057	116,264
2436,598	16,806	185,990	116,064
2437,613	16,585	186,025	115,924
2438,628	16,593	186,028	115,921
2439,642	16,644	185,981	115,917
2440,657	16,659	185,884	115,857
2441,671	16,856	185,883	115,980
2442,686	16,931	185,854	116,003
2443,701	16,953	185,758	115,949
2444,715	16,994	185,751	115,962
2445,730	17,198	185,739	116,083
2446,744	17,332	185,675	116,125
2447,759	16,982	185,657	115,864
2448,774	17,067	185,536	115,837
2449,788	17,041	185,363	115,700
2450,803	16,925	185,330	115,591
2451,817	17,039	185,234	115,598
2452,832	17,152	185,135	115,602
2453,847	16,937	185,010	115,368
2454,861	16,778	185,063	115,284
2455,876	16,877	184,864	115,216
2456,890	16,944	184,641	115,112
2457,905	17,002	184,468	115,034
2458,920	16,865	184,370	114,870
2459,934	16,927	184,328	114,876
2460,949	17,110	184,190	114,903
2461,963	16,973	184,003	114,684
2462,978	17,016	183,807	114,581
2463,993	17,047	183,647	114,492
2465,007	17,218	183,429	114,461
2466,022	17,094	183,284	114,277
2467,036	17,104	183,083	114,147
2468,051	17,167	182,959	114,103
2469,065	17,376	182,843	114,161
2470,080	17,215	182,664	113,931
2471,095	17,118	182,619	113,828
2472,109	17,346	182,563	113,936
2473,124	17,303	182,473	113,840
2474,138	17,347	182,323	113,766
2475,153	17,289	182,239	113,665
2476,168	17,289	182,229	113,649
2477,182	17,083	182,233	113,503
2478,197	17,284	182,236	113,629
2479,211	17,302	182,228	113,627
2480,226	17,375	182,229	113,666
2481,241	17,461	182,222	113,709
2482,255	17,452	182,222	113,693
2483,270	17,386	182,168	113,604
2484,284	17,246	182,092	113,454
2485,299	17,433	182,003	113,513
2486,314	17,385	182,011	113,476
2487,328	17,483	181,997	113,523
2488,343	17,412	181,879	113,392
2489,357	17,440	181,585	113,217
2490,372	16,686	181,298	112,527
2491,387	16,585	181,158	112,363
2492,401	16,859	181,116	112,509
2493,416	16,907	181,017	112,470
2494,430	17,340	180,968	112,717
2495,445	18,117	181,028	113,258
2496,460	19,147	181,115	113,985
2497,474	19,648	181,106	114,301
2498,489	19,809	180,913	114,275
2499,503	19,839	180,867	114,256
2500,518	20,127	180,693	114,326
2501,533	20,028	180,521	114,142
2502,547	19,965	180,226	113,904
2503,562	19,297	179,881	113,237
2504,576	18,710	179,764	112,768
2505,591	18,965	179,664	112,862
2506,605	19,486	179,595	113,151
2507,620	19,312	179,541	112,993
2508,635	19,304	179,424	112,904
2509,649	18,852	179,346	112,549
2510,664	18,907	179,187	112,475
2511,678	18,840	179,117	112,377
2512,693	18,969	179,064	112,419
2513,708	19,009	179,039	112,419
2514,722	18,954	179,015	112,358
2515,737	19,008	178,980	112,361
2516,751	19,071	178,984	112,395
2517,766	18,838	179,041	112,268
2518,781	19,112	178,902	112,350
2519,795	19,080	178,813	112,263
2520,810	18,881	178,826	112,132
2521,824	18,784	178,789	112,036
2522,839	19,117	178,608	112,129
2523,854	19,922	177,542	111,971
2524,868	20,235	174,982	110,546
2525,883	19,807	172,497	108,698
2526,897	19,309	171,490	107,743
2527,912	19,415	171,255	107,652
2528,927	19,144	171,130	107,394
2529,941	19,301	170,930	107,357
2530,956	19,321	170,785	107,269
2531,970	19,421	170,548	107,173
2532,985	19,373	170,439	107,066
2534,000	19,401	170,300	106,986
2535,014	19,422	170,125	106,879
2536,029	18,558	169,819	106,143
2537,043	17,709	169,477	105,395
2538,058	16,833	169,254	104,706
2539,073	16,465	169,197	104,435
2540,087	16,767	169,129	104,569
2541,102	17,425	169,039	104,911
2542,116	17,975	169,118	105,289
2543,131	18,440	169,171	105,600
2544,145	18,753	169,131	105,759
2545,160	18,848	168,955	105,697
2546,175	18,161	168,637	105,067
2547,189	17,437	168,473	104,511
2548,204	17,303	168,374	104,358
2549,218	18,192	168,464	104,950
2550,233	18,961	168,447	105,402
2551,248	19,255	168,336	105,503
2552,262	18,986	168,217	105,255
2553,277	18,813	167,991	104,999
2554,291	18,348	167,909	104,653
2555,306	18,521	167,925	104,760
2556,321	18,941	167,884	104,982
2557,335	19,653	167,940	105,442
2558,350	20,222	167,952	105,788
2559,364	20,663	168,055	106,112
2560,379	21,723	168,167	106,820
2561,394	22,082	168,044	106,951
2562,408	21,698	167,789	106,546
2563,423	20,756	167,492	105,776
2564,437	19,881	167,159	105,025
2565,452	18,981	166,844	104,273
2566,467	18,066	166,516	103,505
2567,481	17,226	166,351	102,885
2568,496	17,235	166,176	102,772
2569,510	17,516	166,139	102,910
2570,525	17,866	166,242	103,176
2571,540	18,514	166,225	103,548
2572,554	18,471	166,129	103,454
2573,569	17,974	165,955	103,036
2574,583	17,652	165,761	102,713
2575,598	17,336	165,623	102,428
2576,613	17,523	165,465	102,434
2577,627	17,466	165,319	102,300
2578,642	17,241	165,311	102,151
2579,656	17,218	165,248	102,088
2580,671	17,363	165,147	102,104
2581,685	17,219	165,050	101,949
2582,700	17,603	165,073	102,185
2583,715	18,291	165,118	102,616
2584,729	18,623	165,054	102,766
2585,744	18,620	164,940	102,684
2586,758	18,513	164,876	102,571
2587,773	18,538	164,717	102,478
2588,788	18,542	164,569	102,379
2589,802	18,565	164,552	102,373
2590,817	18,509	164,443	102,263
2591,831	18,641	164,389	102,300
2592,846	18,691	164,235	102,224
2593,861	18,600	164,142	102,104
2594,875	18,581	164,027	102,011
2595,890	18,627	163,928	101,968
2596,904	18,914	163,763	102,027
2597,919	18,789	163,312	101,663
2598,934	18,873	162,971	101,491
2599,948	18,625	162,755	101,201
2600,963	18,620	162,525	101,047
2601,977	18,604	162,491	101,007
2602,992	18,726	162,397	101,011
2604,007	18,618	162,295	100,876
2605,021	18,717	162,198	100,864
2606,036	18,806	162,041	100,810
2607,050	18,571	161,968	100,618
2608,065	18,916	161,729	100,662
2609,080	18,804	161,636	100,531
2610,094	18,671	161,637	100,444
2611,109	18,794	161,482	100,411
2612,123	19,092	161,331	100,482
2613,138	19,008	161,271	100,387
2614,153	18,739	161,199	100,176
2615,167	18,671	161,084	100,056
2616,182	18,765	160,871	99,970
2617,196	18,041	160,648	99,401
2618,211	17,941	160,519	99,255
2619,226	18,132	160,480	99,332
2620,240	18,240	160,409	99,342
2621,255	18,424	160,321	99,386
2622,269	18,580	160,257	99,429
2623,284	18,384	160,116	99,218
2624,298	18,159	159,939	98,970
2625,313	17,867	159,697	98,643
2626,328	17,456	159,588	98,329
2627,342	16,832	159,390	97,839
2628,357	16,875	159,368	97,841
2629,371	17,772	159,437	98,392
2630,386	18,389	159,451	98,748
2631,401	18,595	159,311	98,771
2632,415	18,168	159,213	98,456
2633,430	18,072	159,128	98,339
2634,444	18,122	158,996	98,278
2635,459	18,335	158,933	98,352
2636,474	18,479	158,849	98,374
2637,488	18,181	158,772	98,147
2638,503	18,120	158,649	98,027
2639,517	18,172	158,498	97,955
2640,532	18,109	158,354	97,821
2641,547	18,251	158,367	97,902
2642,561	18,385	158,285	97,919
2643,576	18,433	158,266	97,927
2644,590	18,474	158,079	97,826
2645,605	18,295	158,023	97,680
2646,620	18,338	157,965	97,660
2647,634	18,588	157,828	97,709
2648,649	18,376	157,639	97,463
2649,663	18,302	157,582	97,377
2650,678	18,125	157,464	97,195
2651,693	18,030	157,255	97,003
2652,707	17,868	157,239	96,893
2653,722	17,995	157,293	96,990
2654,736	18,028	157,134	96,901
2655,751	17,948	156,939	96,728
2656,766	17,921	156,873	96,663
2657,780	17,817	156,715	96,499
2658,795	17,679	156,647	96,370
2659,809	17,800	156,553	96,372
2660,824	17,641	156,478	96,228
2661,838	17,330	156,400	95,996
2662,853	17,498	156,279	96,007
2663,868	17,632	156,124	95,979
2664,882	17,696	156,083	95,982
2665,897	17,861	156,089	96,070
2666,911	17,707	156,004	95,923
2667,926	17,816	155,960	95,948
2668,941	18,054	155,854	96,008
2669,955	17,993	155,670	95,852
2670,970	17,449	155,600	95,495
2671,984	17,527	155,384	95,398
2672,999	17,828	155,282	95,495
2674,014	17,743	155,235	95,411
2675,028	17,473	155,208	95,234
2676,043	17,463	155,030	95,111
2677,057	17,228	154,957	94,926
2678,072	17,163	154,825	94,801
2679,087	17,027	154,807	94,706
2680,101	17,277	154,694	94,767
2681,116	17,356	154,670	94,789
2682,130	17,435	154,598	94,780
2683,145	17,524	154,435	94,721
2684,160	17,597	154,258	94,645
2685,174	17,420	154,255	94,536
2686,189	17,253	154,197	94,399
2687,203	17,433	154,144	94,458
2688,218	17,508	153,997	94,402
2689,233	17,542	153,821	94,305
2690,247	17,377	153,824	94,207
2691,262	17,433	153,770	94,196
2692,276	17,797	153,674	94,331
2693,291	17,602	153,493	94,103
2694,306	17,344	153,342	93,860
2695,320	17,289	153,231	93,753
2696,335	17,160	153,117	93,604
2697,349	17,258	153,163	93,678
2698,364	17,118	153,162	93,592
2699,378	17,320	153,041	93,621
2700,393	17,413	152,992	93,634
2701,408	17,443	152,797	93,523
2702,422	17,349	152,597	93,341
2703,437	17,009	152,558	93,122
2704,451	17,176	152,532	93,189
2705,466	17,381	152,507	93,278
2706,481	17,327	152,397	93,173
2707,495	17,479	152,287	93,181
2708,510	17,209	152,201	92,972
2709,524	17,362	152,042	92,950
2710,539	17,379	151,993	92,922
2711,554	17,164	151,924	92,754
2712,568	17,286	151,847	92,765
2713,583	17,478	151,764	92,811
2714,597	17,389	151,649	92,684
2715,612	17,557	151,512	92,684
2716,627	17,099	151,377	92,343
2717,641	17,080	151,202	92,219
2718,656	16,943	151,288	92,188
2719,670	17,307	151,285	92,376
2720,685	17,466	151,203	92,404
2721,700	17,215	151,002	92,137
2722,714	17,481	150,881	92,199
2723,729	17,190	150,871	92,027
2724,743	17,120	150,768	91,918
2725,758	16,978	150,690	91,785
2726,773	17,250	150,567	91,850
2727,787	17,373	150,483	91,857
2728,802	17,356	150,413	91,797
2729,816	17,368	150,304	91,729
2730,831	17,103	150,190	91,508
2731,846	17,083	150,049	91,403
2732,860	17,193	150,071	91,468
2733,875	17,601	150,038	91,659
2734,889	17,530	149,952	91,560
2735,904	17,399	149,720	91,340
2736,919	17,314	149,622	91,227
2737,933	17,345	149,526	91,177
2738,948	16,960	149,505	90,949
2739,962	17,030	149,370	90,897
2740,977	16,909	149,220	90,733
2741,991	16,693	149,183	90,587
2743,006	16,664	149,035	90,474
2744,021	16,617	148,911	90,365
2745,035	16,520	148,847	90,266
2746,050	16,604	148,817	90,285
2747,064	16,971	148,736	90,424
2748,079	16,942	148,709	90,383
2749,094	16,652	148,569	90,136
2750,108	16,453	148,419	89,932
2751,123	16,568	148,293	89,908
2752,137	16,891	148,255	90,049
2753,152	16,690	148,085	89,831
2754,167	16,772	148,013	89,823
2755,181	16,762	147,986	89,793
2756,196	16,821	147,927	89,781
2757,210	16,745	147,843	89,681
2758,225	16,736	147,803	89,645
2759,240	16,870	147,666	89,624
2760,254	16,742	147,576	89,494
2761,269	16,771	147,464	89,433
2762,283	16,727	147,355	89,337
2763,298	16,271	147,328	89,072
2764,313	16,481	147,286	89,149
2765,327	16,528	147,176	89,100
2766,342	16,754	147,166	89,205
2767,356	16,688	147,089	89,115
2768,371	16,813	146,944	89,085
2769,386	16,488	146,857	88,853
2770,400	16,474	146,728	88,761
2771,415	16,674	146,651	88,811
2772,429	16,734	146,585	88,795
2773,444	16,514	146,463	88,597
2774,459	16,381	146,394	88,478
2775,473	16,434	146,316	88,451
2776,488	16,812	146,189	88,564
2777,502	16,764	146,186	88,529
2778,517	16,845	146,033	88,472
2779,531	16,740	145,943	88,354
2780,546	16,635	145,932	88,285
2781,561	16,558	145,777	88,143
2782,575	16,674	145,689	88,143
2783,590	16,836	145,658	88,200
2784,604	16,632	145,625	88,067
2785,619	16,696	145,526	88,032
2786,634	17,057	145,388	88,128
2787,648	16,725	145,337	87,917
2788,663	16,726	145,163	87,805
2789,677	16,831	145,073	87,797
2790,692	16,947	145,086	87,857
2791,707	16,599	144,970	87,599
2792,721	16,681	144,851	87,562
2793,736	16,833	144,834	87,622
2794,750	17,265	144,775	87,802
2795,765	17,423	144,714	87,839
2796,780	17,637	144,574	87,856
2797,794	17,308	144,533	87,654
2798,809	17,360	144,570	87,695
2799,823	17,092	144,458	87,482
2800,838	17,340	144,409	87,572
2801,853	17,011	144,267	87,309
2802,867	17,126	144,134	87,279
2803,882	16,921	143,932	87,045
2804,896	17,009	143,900	87,063
2805,911	16,892	143,880	86,983
2806,926	17,100	143,853	87,066
2807,940	17,217	143,853	87,118
2808,955	17,051	143,728	86,949
2809,969	17,294	143,703	87,051
2810,984	17,349	143,574	86,993
2811,999	17,270	143,448	86,869
2813,013	17,353	143,446	86,902
2814,028	17,433	143,404	86,910
2815,042	17,365	143,265	86,784
2816,057	17,026	143,076	86,488
2817,071	17,085	143,028	86,482
2818,086	17,224	142,987	86,520
2819,101	17,372	142,855	86,508
2820,115	17,089	142,808	86,328
2821,130	17,069	142,742	86,271
2822,144	17,080	142,630	86,201
2823,159	17,165	142,546	86,185
2824,174	16,947	142,460	86,015
2825,188	17,145	142,403	86,074
2826,203	16,982	142,335	85,942
2827,217	16,935	142,205	85,832
2828,232	16,910	142,128	85,765
2829,247	16,966	142,084	85,760
2830,261	16,761	142,091	85,653
2831,276	17,243	141,992	85,829
2832,290	17,178	141,829	85,690
2833,305	17,205	141,781	85,667
2834,320	16,970	141,698	85,491
2835,334	17,314	141,557	85,572
2836,349	17,290	141,515	85,526
2837,363	17,148	141,443	85,404
2838,378	17,175	141,300	85,324
2839,393	17,063	141,240	85,224
2840,407	17,351	141,108	85,281
2841,422	17,271	141,115	85,237
2842,436	17,332	141,039	85,214
2843,451	16,907	140,929	84,928
2844,466	16,684	140,824	84,746
2845,480	16,939	140,666	84,771
2846,495	16,868	140,462	84,605
2847,509	16,873	140,490	84,616
2848,524	16,590	140,481	84,462
2849,539	17,045	140,450	84,663
2850,553	17,509	140,343	84,822
2851,568	16,936	140,184	84,434
2852,582	16,586	140,078	84,188
2853,597	16,568	139,946	84,092
2854,611	16,773	139,846	84,126
2855,626	16,702	139,821	84,069
2856,641	16,776	139,744	84,052
2857,655	16,829	139,680	84,032
2858,670	16,796	139,617	83,970
2859,684	17,096	139,551	84,072
2860,699	16,967	139,499	83,969
2861,714	17,124	139,447	84,008
2862,728	17,353	139,407	84,090
2863,743	17,335	139,309	84,014
2864,757	17,221	139,243	83,911
2865,772	17,200	139,228	83,884
2866,787	17,424	139,042	83,875
2867,801	17,302	138,961	83,759
2868,816	17,220	138,995	83,731
2869,830	17,435	138,812	83,720
2870,845	17,460	138,674	83,641
2871,860	17,038	138,565	83,361
2872,874	17,214	138,505	83,403
2873,889	17,088	138,438	83,294
2874,903	17,070	138,378	83,242
2875,918	17,141	138,288	83,215
2876,933	17,147	138,129	83,115
2877,947	17,123	138,070	83,060
2878,962	16,849	138,027	82,893
2879,976	16,647	137,879	82,698
2880,991	17,010	137,771	82,803
2882,006	16,784	137,758	82,678
2883,020	16,781	137,709	82,639
2884,035	16,880	137,651	82,646
2885,049	17,092	137,550	82,681
2886,064	17,259	137,518	82,736
2887,079	17,337	137,469	82,737
2888,093	17,257	137,432	82,668
2889,108	17,139	137,285	82,515
2890,122	17,245	137,184	82,499
2891,137	17,423	137,046	82,495
2892,152	17,479	137,049	82,517
2893,166	17,339	137,024	82,426
2894,181	17,030	137,021	82,267
2895,195	16,945	136,901	82,147
2896,210	17,141	136,723	82,128
2897,224	16,889	136,740	82,009
2898,239	17,182	136,582	82,048
2899,254	17,342	136,452	82,040
2900,268	17,044	136,465	81,897
2901,283	16,900	136,324	81,736
2902,297	16,989	136,194	81,694
2903,312	17,102	136,114	81,692
2904,327	17,235	136,095	81,738
2905,341	17,109	136,021	81,626
2906,356	17,171	135,974	81,620
2907,370	17,267	135,861	81,591
2908,385	17,135	135,759	81,460
2909,400	17,167	135,663	81,410
2910,414	17,046	135,625	81,322
2911,429	17,156	135,549	81,322
2912,443	17,263	135,413	81,284
2913,458	17,036	135,343	81,126
2914,473	16,755	135,261	80,935
2915,487	16,849	135,126	80,893
2916,502	16,704	135,087	80,793
2917,516	16,676	135,006	80,724
2918,531	16,571	134,928	80,620
2919,546	16,780	134,829	80,653
2920,560	16,906	134,767	80,669
2921,575	16,988	134,756	80,695
2922,589	17,005	134,596	80,599
2923,604	17,099	134,560	80,615
2924,619	16,921	134,552	80,519
2925,633	16,977	134,424	80,462
2926,648	16,798	134,354	80,328
2927,662	16,879	134,222	80,280
2928,677	16,909	134,165	80,254
2929,692	16,541	134,106	80,037
2930,706	16,659	133,998	80,021
2931,721	16,495	133,975	79,923
2932,735	16,852	133,902	80,040
2933,750	16,828	133,825	79,977
2934,764	16,853	133,737	79,928
2935,779	16,877	133,554	79,823
2936,794	16,864	133,568	79,819
2937,808	16,933	133,519	79,815
2938,823	16,963	133,365	79,730
2939,837	16,836	133,280	79,612
2940,852	16,805	133,263	79,580
2941,867	17,080	133,178	79,652
2942,881	17,008	133,120	79,576
2943,896	16,676	133,062	79,379
2944,910	16,687	133,001	79,341
2945,925	16,754	132,895	79,301
2946,940	16,783	132,763	79,230
2947,954	17,021	132,628	79,253
2948,969	17,058	132,639	79,270
2949,983	17,079	132,583	79,239
2950,998	16,894	132,554	79,128
2952,013	16,906	132,416	79,044
2953,027	16,971	132,401	79,059
2954,042	16,885	132,273	78,936
2955,056	17,034	132,134	78,914
2956,071	16,827	132,090	78,785
2957,086	17,033	131,981	78,809
2958,100	16,797	131,975	78,689
2959,115	16,854	131,828	78,621
2960,129	17,060	131,751	78,663
2961,144	17,151	131,660	78,644
2962,159	17,110	131,626	78,598
2963,173	16,985	131,601	78,518
2964,188	17,012	131,585	78,514
2965,202	17,462	131,548	78,693
2966,217	17,815	131,474	78,806
2967,232	17,573	131,384	78,633
2968,246	17,306	131,278	78,439
2969,261	17,244	131,172	78,340
2970,275	17,252	131,147	78,322
2971,290	17,379	131,035	78,307
2972,304	17,630	131,001	78,394
2973,319	17,868	130,895	78,434
2974,334	17,463	130,850	78,214
2975,348	17,238	130,933	78,153
2976,363	17,451	130,720	78,117
2977,377	17,480	130,591	78,046
2978,392	17,368	130,576	77,979
2979,407	17,253	130,498	77,873
2980,421	17,496	130,469	77,960
2981,436	17,414	130,418	77,885
2982,450	17,358	130,243	77,748
2983,465	17,140	130,086	77,548
2984,480	17,268	130,104	77,610
2985,494	17,388	130,082	77,645
2986,509	17,507	129,994	77,640
2987,523	17,526	129,916	77,595
2988,538	17,604	129,795	77,551
2989,553	17,541	129,730	77,477
2990,567	17,473	129,630	77,380
2991,582	17,608	129,602	77,417
2992,596	17,879	129,517	77,483
2993,611	17,605	129,460	77,318
2994,626	17,669	129,416	77,313
2995,640	17,494	129,338	77,180
2996,655	17,353	129,147	76,996
2997,669	17,064	129,148	76,859
2998,684	17,388	129,123	76,983
2999,699	17,425	129,063	76,958
3000,713	17,723	128,901	76,989
3001,728	17,530	128,862	76,872
3002,742	17,514	128,781	76,810
3003,757	17,614	128,709	76,805
3004,772	17,368	128,649	76,652
3005,786	17,440	128,532	76,607
3006,801	17,554	128,431	76,592
3007,815	17,585	128,446	76,608
3008,830	17,615	128,366	76,566
3009,845	17,827	128,236	76,578
3010,859	17,712	128,223	76,511
3011,874	17,555	128,174	76,405
3012,888	17,644	128,046	76,362
3013,903	17,824	128,022	76,421
3014,917	17,671	127,921	76,286
3015,932	17,327	127,807	76,057
3016,947	17,629	127,675	76,107
3017,961	17,784	127,697	76,182
3018,976	17,696	127,629	76,096
3019,990	17,818	127,532	76,086
3021,005	17,831	127,431	76,025
3022,020	17,725	127,339	75,916
3023,034	17,480	127,267	75,757
3024,049	17,224	127,310	75,662
3025,063	17,341	127,285	75,692
3026,078	17,901	127,129	75,842
3027,093	17,837	127,067	75,770
3028,107	17,949	126,924	75,727
3029,122	17,388	126,914	75,466
3030,136	17,508	126,834	75,465
3031,151	17,730	126,805	75,539
3032,166	17,931	126,796	75,616
3033,180	18,312	126,745	75,748
3034,195	17,961	126,541	75,465
3035,209	17,687	126,488	75,305
3036,224	17,656	126,386	75,224
3037,239	17,993	126,272	75,298
3038,253	18,081	126,199	75,287
3039,268	17,657	126,227	75,110
3040,282	18,001	126,084	75,169
3041,297	18,081	126,076	75,193
3042,312	18,111	125,978	75,141
3043,326	18,094	125,904	75,083
3044,341	17,904	125,859	74,966
3045,355	18,175	125,782	75,032
3046,370	18,195	125,696	74,983
3047,385	17,722	125,756	74,805
3048,399	18,216	125,613	74,929
3049,414	18,074	125,426	74,750
3050,428	18,138	125,437	74,777
3051,443	18,199	125,401	74,775
3052,457	18,502	125,359	74,876
3053,472	18,420	125,251	74,770
3054,487	18,339	125,283	74,747
3055,501	18,605	125,101	74,748
3056,516	18,481	125,035	74,648
3057,530	18,552	125,028	74,667
3058,545	18,398	124,906	74,521
3059,560	18,487	124,838	74,513
3060,574	18,586	124,832	74,545
3061,589	18,669	124,821	74,568
3062,603	18,699	124,785	74,553
3063,618	18,607	124,606	74,400
3064,633	18,451	124,528	74,279
3065,647	18,347	124,504	74,213
3066,662	18,552	124,470	74,275
3067,676	18,694	124,389	74,282
3068,691	18,711	124,337	74,251
3069,706	18,785	124,227	74,211
3070,720	18,846	124,119	74,166
3071,735	18,227	123,934	73,783
3072,749	17,546	123,764	73,381
3073,764	17,297	123,639	73,193
3074,779	17,680	123,608	73,334
3075,793	17,893	123,706	73,477
3076,808	18,618	123,656	73,753
3077,822	18,379	123,718	73,680
3078,837	18,541	123,668	73,714
3079,852	18,671	123,581	73,711
3080,866	18,714	123,447	73,643
3081,881	18,561	123,310	73,489
3082,895	18,109	123,202	73,225
3083,910	18,248	123,102	73,219
3084,925	18,651	123,148	73,412
3085,939	19,110	123,185	73,623
3086,954	19,354	123,125	73,685
3087,968	19,376	122,997	73,611
3088,983	19,120	123,043	73,523
3089,997	18,994	122,960	73,413
3091,012	19,334	122,843	73,482
3092,027	19,256	122,701	73,358
3093,041	19,317	122,572	73,300
3094,056	18,923	122,630	73,160
3095,070	19,313	122,575	73,287
3096,085	19,024	122,502	73,114
3097,100	19,036	122,450	73,082
3098,114	19,244	122,302	73,075
3099,129	19,085	122,141	72,905
3100,143	18,906	122,157	72,832
3101,158	19,050	122,122	72,866
3102,173	19,166	122,040	72,859
3103,187	19,138	121,916	72,768
3104,202	19,336	121,728	72,732
3105,216	19,213	121,697	72,655
3106,231	19,229	121,593	72,594
3107,246	18,834	121,639	72,448
3108,260	19,309	121,490	72,553
3109,275	19,437	121,395	72,544
3110,289	19,384	121,274	72,442
3111,304	19,354	121,238	72,402
3112,319	19,280	121,152	72,313
3113,333	19,278	121,047	72,243
3114,348	19,156	121,010	72,164
3115,362	19,096	120,997	72,125
3116,377	19,394	120,819	72,137
3117,392	19,339	120,862	72,133
3118,406	19,150	120,843	72,036
3119,421	19,168	120,684	71,943
3120,435	19,318	120,518	71,900
3121,450	19,257	120,389	71,792
3122,465	18,741	120,339	71,540
3123,479	18,146	120,246	71,231
3124,494	18,360	119,991	71,163
3125,508	18,129	120,117	71,135
3126,523	18,028	119,985	71,008
3127,537	18,255	119,902	71,047
3128,552	18,282	119,818	71,002
3129,567	18,398	119,730	70,992
3130,581	18,114	119,637	70,813
3131,596	17,651	119,556	70,567
3132,610	17,569	119,459	70,470
3133,625	17,909	119,567	70,668
3134,640	18,997	119,555	71,104
3135,654	19,514	119,534	71,299
3136,669	19,853	119,497	71,411
3137,683	20,091	119,488	71,497
3138,698	19,879	119,476	71,396
3139,713	20,045	119,417	71,423
3140,727	20,096	119,279	71,355
3141,742	20,121	119,129	71,269
3142,756	20,174	119,064	71,246
3143,771	20,094	119,060	71,205
3144,786	20,109	118,978	71,155
3145,800	19,937	118,966	71,071
3146,815	20,022	118,837	71,023
3147,829	19,888	118,827	70,956
3148,844	19,957	118,675	70,887
3149,859	20,118	118,629	70,919
3150,873	20,177	118,674	70,964
3151,888	19,093	119,452	70,976
3152,902	18,040	123,023	72,643
3153,917	19,059	126,952	75,404
3154,932	20,394	128,512	76,915
3155,946	20,570	128,723	77,113
3156,961	20,356	128,661	76,974
3157,975	20,634	128,741	77,138
3158,990	20,417	128,841	77,095
3160,005	20,381	128,917	77,118
3161,019	20,670	128,937	77,251
3162,034	20,695	129,076	77,339
3163,048	20,370	128,958	77,117
3164,063	20,590	128,808	77,118
3165,078	20,551	128,759	77,065
3166,092	20,639	128,710	77,067
3167,107	20,274	128,669	76,874
3168,121	20,417	128,632	76,909
3169,136	20,331	128,487	76,777
3170,150	20,584	128,327	76,787
3171,165	20,487	128,195	76,658
3172,180	20,506	128,131	76,622
3173,194	20,596	128,123	76,650
3174,209	20,707	127,972	76,602
3175,223	20,685	127,942	76,567
3176,238	20,647	127,885	76,509
3177,253	20,604	127,831	76,451
3178,267	20,611	127,819	76,441
3179,282	20,867	127,710	76,481
3180,296	21,368	127,556	76,602
3181,311	21,180	127,496	76,476
3182,326	21,357	127,365	76,469
3183,340	21,430	127,315	76,464
3184,355	21,662	127,356	76,583
3185,369	21,660	127,257	76,516
3186,384	21,897	127,253	76,610
3187,399	21,700	127,255	76,518
3188,413	21,936	127,179	76,569
3189,428	22,104	127,037	76,550
3190,442	21,728	126,933	76,317
3191,457	21,574	126,863	76,201
3192,472	21,325	126,726	76,003
3193,486	21,030	126,542	75,758
3194,501	20,891	126,426	75,622
3195,515	20,754	126,283	75,470
3196,530	20,357	126,271	75,284
3197,545	20,697	126,178	75,369
3198,559	20,322	126,160	75,189
3199,574	20,177	126,112	75,091
3200,588	20,485	126,061	75,188
3201,603	20,450	125,970	75,112
3202,618	20,635	125,841	75,109
3203,632	20,661	125,734	75,049
3204,647	20,594	125,663	74,971
3205,661	20,656	125,581	74,942
3206,676	20,974	125,452	74,996
3207,690	20,629	125,423	74,823
3208,705	20,640	125,367	74,787
3209,720	20,796	125,311	74,814
3210,734	21,045	125,389	74,962
3211,749	20,965	125,377	74,913
3212,763	21,082	125,290	74,905
3213,778	21,130	125,215	74,874
3214,793	21,286	125,169	74,907
3215,807	21,201	125,108	74,827
3216,822	21,066	125,096	74,756
3217,836	21,020	125,050	74,702
3218,851	21,325	124,845	74,703
3219,866	23,210	123,023	74,399
3220,880	25,129	117,782	71,995
3221,895	23,649	113,344	68,704
3222,909	22,178	111,984	67,311
3223,924	21,750	111,531	66,869
3224,939	21,817	111,115	66,640
3225,953	21,451	110,936	66,387
3226,968	22,154	110,611	66,453
3227,982	21,705	111,387	66,742
3228,997	4,959	123,205	66,703
3230,012	-4,146	173,674	88,509
3231,026	24,087	179,852	109,200
3232,041	73,747	88,047	67,885
3233,055	140,451	17,342	16,839
3234,070	37,014	6,393	4,160
3235,085	-5,608	4,868	2,455
3236,099	-17,361	5,388	2,495
3237,114	31,565	5,498	3,476
3238,128	66,942	1,930	1,446
3239,143	11,169	0,643	0,361
3240,158	-91,324	0,431	0,091
3241,172	-55,252	0,271	0,089
3242,187	-22,127	0,201	0,090
3243,201	81,858	0,167	0,133
3244,216	-200,000	0,016	-0,081
3245,230	-18,170	-0,035	0,016
3246,245	-200,000	0,008	-0,076
3247,260	570,920	-0,040	0,071
3248,274	-163,886	-0,122	0,004
3249,289	-27,449	-0,133	-0,057
